TwoTheta	Intensity
3.9986	724.524889
4.0249	613.602441
4.0512	572.022889
4.0774	503.912704
4.1037	469.458889
4.13	431.849961
4.1563	399.160441
4.1825	384.316816
4.2088	358.231329
4.2351	320.266816
4.2613	334.597264
4.2876	297.2176
4.3139	287.946961
4.3402	302.238225
4.3664	284.428225
4.3927	260.338225
4.419	235.438336
4.4453	266.440329
4.4715	274.332969
4.4978	233.508961
4.5241	230.037889
4.5503	221.563225
4.5766	218.182441
4.6029	212.663889
4.6292	212.372329
4.6554	200.987329
4.6817	197.177764
4.708	206.928225
4.7342	208.455844
4.7605	199.233225
4.7868	219.099204
4.8131	191.656336
4.8393	185.068816
4.8656	189.915961
4.8919	177.768889
4.9182	190.798969
4.9444	178.329316
4.9707	183.385764
4.997	166.023225
5.0232	175.8276
5.0495	177.502329
5.0758	162.8176
5.1021	158.080329
5.1283	167.107329
5.1546	150.577441
5.1809	162.3076
5.2071	156.0001
5.2334	148.547344
5.2597	145.250704
5.286	134.165889
5.3122	147.768336
5.3385	143.496441
5.3648	148.791204
5.3911	139.783329
5.4173	132.963961
5.4436	126.5625
5.4699	145.009764
5.4961	133.934329
5.5224	132.963961
5.5487	127.035441
5.575	149.8176
5.6012	129.618225
5.6275	125.619264
5.6538	131.537961
5.68	134.420836
5.7063	127.509264
5.7326	121.2201
5.7589	114.233344
5.7851	135.373225
5.8114	124.233316
5.8377	115.7776
5.864	116.467264
5.8902	128.436889
5.9165	130.347889
5.9428	129.868816
5.969	135.629316
5.9953	121
6.0216	131.767441
6.0479	118.265625
6.0741	125.865961
6.1004	123.988225
6.1267	118.940836
6.1529	121.462441
6.1792	130.576329
6.2055	113.784889
6.2318	115.5625
6.258	125.171344
6.2843	113.550336
6.3106	130.576329
6.3369	109.599961
6.3631	129.390625
6.3894	113.337316
6.4157	115.5625
6.4419	110.691441
6.4682	110.901961
6.4945	106.770889
6.5208	119.858704
6.547	118.483225
6.5733	117.592336
6.5996	119.639844
6.6258	108.076816
6.6521	121
6.6784	107.433225
6.7047	103.999204
6.7309	121.2201
6.7572	116.683204
6.7835	106.131204
6.8098	108.951844
6.836	110.691441
6.8623	118.265625
6.8886	109.369764
6.9148	108.513889
6.9411	102.090816
6.9674	101.465329
6.9937	104.203264
7.0199	115.5625
7.0462	123.298816
7.0725	113.998329
7.0987	125.395204
7.125	114.896961
7.1513	101.263969
7.1776	114.447204
7.2038	130.347889
7.2301	130.576329
7.2564	126.090441
7.2827	120.318961
7.3089	133.934329
7.3352	123.298816
7.3615	115.111441
7.3877	113.337316
7.414	112.232836
7.4403	125.395204
7.4666	123.076836
7.4928	123.298816
7.5191	120.077764
7.5454	129.163225
7.5717	121.925764
7.5979	131.767441
7.6242	116.467264
7.6505	123.765625
7.6767	135.373225
7.703	113.998329
7.7293	119.399329
7.7556	113.998329
7.7818	123.298816
7.8081	121.682961
7.8344	121.462441
7.8606	122.146704
7.8869	135.862336
7.9132	128.913316
7.9395	121.682961
7.9657	138.791961
7.992	141.015625
8.0183	128.436889
8.0446	125.395204
8.0708	129.868816
8.0971	136.352329
8.1234	131.285764
8.1496	131.537961
8.1759	135.862336
8.2022	134.652816
8.2285	124.456336
8.2547	154.703844
8.281	141.752836
8.3073	116.683204
8.3335	127.509264
8.3598	143.256961
8.3861	160.174336
8.4124	154.952704
8.4386	148.791204
8.4649	132.25
8.4912	134.908225
8.5175	140.280336
8.5437	146.264836
8.57	142.993764
8.5963	154.430329
8.6225	130.827844
8.6488	150.0625
8.6751	128.210329
8.7014	146.264836
8.7276	152.374336
8.7539	140.517316
8.7802	173.080336
8.8064	128.210329
8.8327	135.629316
8.859	151.609969
8.8853	142.014889
8.9115	147.015625
8.9378	158.080329
8.9641	146.506816
8.9904	157.552704
9.0166	154.952704
9.0429	171.714816
9.0692	144.2401
9.0954	139.783329
9.1217	162.8176
9.148	144
9.1743	142.993764
9.2005	152.374336
9.2268	140.778225
9.2531	139.783329
9.2793	152.621316
9.3056	145.998889
9.3319	149.303961
9.3582	151.093264
9.3844	148.035889
9.4107	135.862336
9.437	135.373225
9.4633	139.546969
9.4895	158.608836
9.5158	153.140625
9.5421	141.752836
9.5683	132.733441
9.5946	151.339204
9.6209	141.253225
9.6472	152.374336
9.6734	158.080329
9.6997	141.015625
9.726	153.908836
9.7522	141.015625
9.7785	129.868816
9.8048	153.908836
9.8311	135.862336
9.8573	136.843204
9.8836	128.913316
9.9099	145.009764
9.9362	127.983969
9.9624	136.609344
9.9887	137.077264
10.015	143.256961
10.0412	126.090441
10.0675	140.280336
10.0938	128.686336
10.1201	133.702969
10.1463	126.3376
10.1726	142.515844
10.1989	133.217764
10.2251	135.629316
10.2514	132.963961
10.2777	124.925329
10.304	122.611329
10.3302	132.25
10.3565	120.538441
10.3828	120.538441
10.4091	128.686336
10.4353	111.576969
10.4616	113.103225
10.4879	114.661264
10.5141	129.618225
10.5404	111.344704
10.5667	116.229961
10.593	120.538441
10.6192	122.146704
10.6455	130.576329
10.6718	112.678225
10.698	115.111441
10.7243	120.318961
10.7506	97.101316
10.7769	103.144336
10.8031	106.131204
10.8294	105.925264
10.8557	108.513889
10.882	95.883264
10.9082	113.550336
10.9345	105.925264
10.9608	90.649441
10.987	112.444816
11.0133	97.101316
11.0396	86.136961
11.0659	97.101316
11.0921	100
11.1184	92.640625
11.1447	90.4401
11.1709	79.316836
11.1972	91.833889
11.2235	82.137969
11.2498	88.868329
11.276	82.500889
11.3023	83.083225
11.3286	92.640625
11.3549	77.668969
11.3811	81.558961
11.4074	90.649441
11.4337	78.588225
11.4599	79.512889
11.4862	81.558961
11.5125	75.481344
11.5388	82.500889
11.565	71.723961
11.5913	70.492816
11.6176	81.757764
11.6438	85.951441
11.6701	82.137969
11.6964	68.923204
11.7227	68.409441
11.7489	65.011969
11.7752	68.409441
11.8015	68.574961
11.8278	84.033889
11.854	62.173225
11.8803	75.116889
11.9066	68.409441
11.9328	69.105969
11.9591	72.4201
11.9854	65.512836
12.0117	65.011969
12.0379	57.198969
12.0642	59.737441
12.0905	60.388441
12.1167	59.9076
12.143	62.015625
12.1693	62.504836
12.1956	60.871204
12.2218	63.8401
12.2481	55.323844
12.2744	51.365889
12.3007	55.160329
12.3269	63.329764
12.3532	56.4001
12.3795	51.365889
12.4057	55.011889
12.432	49.885969
12.4583	48.274704
12.4846	47.403225
12.5108	52.113961
12.5371	43.480836
12.5634	50.908225
12.5896	43.890625
12.6159	46.977316
12.6422	41.977441
12.6685	42.3801
12.6947	50.168889
12.721	44.863204
12.7473	47.265625
12.7736	53.319204
12.7998	50.466816
12.8261	46.267204
12.8524	49.434961
12.8786	48.135844
12.9049	47.844889
12.9312	45.846441
12.9575	46.416969
12.9837	47.692836
13.01	45.6976
13.0363	40.640625
13.0625	43.890625
13.0888	35.748441
13.1151	46.840336
13.1414	41.705764
13.1676	42.3801
13.1939	41.705764
13.2202	45.4276
13.2465	35.628961
13.2727	37.393225
13.299	40.908816
13.3253	37.002889
13.3515	40.513225
13.3778	41.036836
13.4041	37.896336
13.4304	38.415204
13.4566	38.675961
13.4829	35.628961
13.5092	40.106889
13.5354	44.023225
13.5617	36.252441
13.588	38.031889
13.6143	41.847961
13.6405	43.072969
13.6668	38.415204
13.6931	42.797764
13.7194	48.413764
13.7456	50.324836
13.7719	46.553329
13.7982	53.626329
13.8244	53.173264
13.8507	57.032704
13.877	63.011844
13.9033	79.316836
13.9295	106.770889
13.9558	155.201764
13.9821	267.453316
14.0083	472.6276
14.0346	875.804836
14.0609	1301.982889
14.0872	1785.9076
14.1134	1743.8976
14.1397	1158.108961
14.166	695.113225
14.1923	374.190336
14.2185	196.2801
14.2448	117.592336
14.2711	72.965764
14.2973	65.674816
14.3236	49.730704
14.3499	46.267204
14.3762	49.589764
14.4024	44.302336
14.4287	41.306329
14.455	41.705764
14.4812	38.675961
14.5075	36.759969
14.5338	45.4276
14.5601	34.515625
14.5863	27.5625
14.6126	35.259844
14.6389	31.753225
14.6652	34.762816
14.6914	35.628961
14.7177	32.353344
14.744	28.998225
14.7702	27.5625
14.7965	26.163225
14.8228	31.292836
14.8491	33.547264
14.8753	30.25
14.9016	31.528225
14.9279	29.680704
14.9542	25.948836
14.9804	30.3601
15.0067	32.581264
15.033	32.353344
15.0592	29.343889
15.0855	27.6676
15.1118	32.467204
15.1381	30.25
15.1643	26.915344
15.1906	30.946969
15.2169	26.163225
15.2431	30.824704
15.2694	27.123264
15.2957	29.452329
15.322	29.224836
15.3482	30.824704
15.3745	26.915344
15.4008	26.801329
15.4271	27.342441
15.4533	26.265625
15.4796	27.888961
15.5059	29.789764
15.5321	31.058329
15.5584	28.783225
15.5847	27.783441
15.611	27.5625
15.6372	26.697889
15.6635	25.421764
15.6898	32.581264
15.716	31.058329
15.7423	24.790441
15.7686	26.265625
15.7949	22.963264
15.8211	32.228329
15.8474	28.227969
15.8737	27.342441
15.9	28.783225
15.9262	34.398225
15.9525	29.224836
15.9788	26.801329
16.005	28.558336
16.0313	27.4576
16.0576	26.481316
16.0839	28.440889
16.1101	26.801329
16.1364	27.342441
16.1627	27.783441
16.1889	29.116816
16.2152	31.990336
16.2415	29.116816
16.2678	29.789764
16.294	26.584336
16.3203	25
16.3466	24.176889
16.3729	27.4576
16.3991	25.735329
16.4254	28.005264
16.4517	28.005264
16.4779	25.633969
16.5042	30.824704
16.5305	27.342441
16.5568	25.948836
16.583	28.558336
16.6093	28.005264
16.6356	28.558336
16.6618	25.633969
16.6881	26.697889
16.7144	25.210441
16.7407	29.343889
16.7669	26.050816
16.7932	23.464336
16.8195	28.440889
16.8458	28.334329
16.872	29.909961
16.8983	28.665316
16.9246	26.050816
16.9508	30.019441
16.9771	25.836889
17.0034	30.1401
17.0297	31.528225
17.0559	24.9001
17.0822	21.585316
17.1085	28.005264
17.1347	28.558336
17.161	27.6676
17.1873	27.5625
17.2136	27.6676
17.2398	29.224836
17.2661	25.1001
17.2924	23.970816
17.3187	24.581764
17.3449	23.970816
17.3712	24.581764
17.3975	25.310961
17.4237	26.584336
17.45	28.440889
17.4763	25.421764
17.5026	25.522704
17.5288	25
17.5551	30.1401
17.5814	25
17.6076	25
17.6339	30.019441
17.6602	22.4676
17.6865	30.25
17.7127	24.581764
17.739	21.003889
17.7653	24.581764
17.7916	24.176889
17.8178	21.780889
17.8441	24.383844
17.8704	22.5625
17.8966	25.522704
17.9229	26.265625
17.9492	25.522704
17.9755	28.783225
18.0017	25.310961
18.028	23.357889
18.0543	26.265625
18.0805	23.059204
18.1068	21.874329
18.1331	25.735329
18.1594	27.019204
18.1856	29.224836
18.2119	26.801329
18.2382	28.334329
18.2645	27.237961
18.2907	23.970816
18.317	27.342441
18.3433	27.342441
18.3695	22.857961
18.3958	28.783225
18.4221	27.019204
18.4484	25.1001
18.4746	27.342441
18.5009	25.1001
18.5272	23.357889
18.5534	25.310961
18.5797	24.275329
18.606	25.836889
18.6323	25.210441
18.6585	28.005264
18.6848	20.439441
18.7111	25.1001
18.7374	23.164969
18.7636	24.581764
18.7899	23.357889
18.8162	28.998225
18.8424	22.857961
18.8687	26.481316
18.895	25.735329
18.9213	29.116816
18.9475	24.482704
18.9738	26.163225
19.0001	25
19.0263	24.9001
19.0526	27.4576
19.0789	26.801329
19.1052	28.334329
19.1314	28.558336
19.1577	29.343889
19.184	25.836889
19.2103	26.050816
19.2365	23.970816
19.2628	31.169889
19.2891	25.735329
19.3153	22.363441
19.3416	25.836889
19.3679	24.383844
19.3942	25.735329
19.4204	20.820969
19.4467	27.4576
19.473	26.050816
19.4992	27.6676
19.5255	23.863225
19.5518	24.9001
19.5781	23.970816
19.6043	30.3601
19.6306	20.1601
19.6569	27.237961
19.6832	20.061441
19.7094	27.019204
19.7357	28.440889
19.762	28.227969
19.7882	23.561316
19.8145	29.909961
19.8408	25.836889
19.8671	28.005264
19.8933	26.481316
19.9196	26.801329
19.9459	29.680704
19.9721	26.368225
19.9984	26.915344
20.0247	26.697889
20.051	32.9476
20.0772	43.612816
20.1035	44.302336
20.1298	38.415204
20.1561	63.170704
20.1823	82.500889
20.2086	109.160704
20.2349	123.298816
20.2611	132.25
20.2874	140.019889
20.3137	108.951844
20.34	92.833225
20.3662	60.871204
20.3925	46.553329
20.4188	34.633225
20.445	42.1201
20.4713	32.228329
20.4976	34.152336
20.5239	31.877316
20.5501	27.123264
20.5764	28.005264
20.6027	28.998225
20.629	23.464336
20.6552	25
20.6815	28.890625
20.7078	25.310961
20.734	28.783225
20.7603	25.836889
20.7866	18.601969
20.8129	21.585316
20.8391	26.697889
20.8654	28.334329
20.8917	27.5625
20.9179	27.5625
20.9442	23.970816
20.9705	22.4676
20.9968	24.9001
21.023	27.237961
21.0493	28.111204
21.0756	27.123264
21.1019	24.068836
21.1281	22.268961
21.1544	25
21.1807	28.111204
21.2069	26.050816
21.2332	29.224836
21.2595	21.390625
21.2858	22.5625
21.312	27.237961
21.3383	24.068836
21.3646	28.440889
21.3908	23.561316
21.4171	23.668225
21.4434	26.265625
21.4697	28.005264
21.4959	25.522704
21.5222	23.164969
21.5485	27.342441
21.5748	24.275329
21.601	29.571844
21.6273	27.019204
21.6536	24.383844
21.6798	26.368225
21.7061	23.561316
21.7324	28.334329
21.7587	26.163225
21.7849	26.163225
21.8112	22.071204
21.8375	23.164969
21.8637	27.783441
21.89	27.783441
21.9163	23.464336
21.9426	28.334329
21.9688	26.481316
21.9951	23.164969
22.0214	28.890625
22.0477	23.561316
22.0739	26.050816
22.1002	24.275329
22.1265	25.210441
22.1527	22.6576
22.179	24.383844
22.2053	27.019204
22.2316	25.1001
22.2578	26.481316
22.2841	25
22.3104	27.783441
22.3366	25.735329
22.3629	24.9001
22.3892	22.4676
22.4155	26.368225
22.4417	25.310961
22.468	26.050816
22.4943	24.581764
22.5206	24.176889
22.5468	26.584336
22.5731	25.310961
22.5994	28.005264
22.6256	25.948836
22.6519	25
22.6782	24.068836
22.7045	25.1001
22.7307	29.571844
22.757	25.1001
22.7833	31.169889
22.8096	25.735329
22.8358	24.275329
22.8621	20.25
22.8884	27.888961
22.9146	27.019204
22.9409	26.368225
22.9672	26.801329
22.9935	25.310961
23.0197	25.1001
23.046	28.227969
23.0723	24.581764
23.0985	23.357889
23.1248	22.6576
23.1511	26.050816
23.1774	23.970816
23.2036	24.690961
23.2299	20.3401
23.2562	23.464336
23.2825	24.482704
23.3087	24.790441
23.335	26.584336
23.3613	27.888961
23.3875	27.783441
23.4138	27.019204
23.4401	28.665316
23.4664	21.874329
23.4926	22.4676
23.5189	24.482704
23.5452	26.584336
23.5714	28.558336
23.5977	26.801329
23.624	27.6676
23.6503	29.452329
23.6765	28.783225
23.7028	23.357889
23.7291	25.948836
23.7554	28.783225
23.7816	23.059204
23.8079	25.1001
23.8342	24.690961
23.8604	25.948836
23.8867	28.005264
23.913	27.019204
23.9393	27.342441
23.9655	25.633969
23.9918	26.915344
24.0181	26.163225
24.0443	25.735329
24.0706	28.665316
24.0969	27.888961
24.1232	27.783441
24.1494	26.481316
24.1757	29.789764
24.202	25.522704
24.2283	32.467204
24.2545	28.890625
24.2808	31.404816
24.3071	33.0625
24.3333	33.907329
24.3596	34.762816
24.3859	44.729344
24.4122	52.867441
24.4384	60.543961
24.4647	58.614336
24.491	100.420441
24.5172	151.093264
24.5435	191.656336
24.5698	280.5625
24.5961	437.939329
24.6223	413.430889
24.6486	385.965316
24.6749	273.968704
24.7012	179.158225
24.7274	133.217764
24.7537	73.496329
24.78	58.461316
24.8062	44.997264
24.8325	43.480836
24.8588	40.246336
24.8851	37.773316
24.9113	30.591961
24.9376	30.019441
24.9639	33.1776
24.9901	30.019441
25.0164	30.713764
25.0427	28.665316
25.069	29.571844
25.0952	26.265625
25.1215	25.210441
25.1478	26.265625
25.1741	26.697889
25.2003	28.783225
25.2266	29.452329
25.2529	29.909961
25.2791	30.25
25.3054	26.697889
25.3317	25.1001
25.358	27.4576
25.3842	28.998225
25.4105	28.558336
25.4368	30.481441
25.463	26.368225
25.4893	27.123264
25.5156	22.268961
25.5419	29.452329
25.5681	27.888961
25.5944	22.762441
25.6207	27.888961
25.647	31.990336
25.6732	28.890625
25.6995	25.948836
25.7258	24.275329
25.752	26.915344
25.7783	29.680704
25.8046	28.111204
25.8309	28.334329
25.8571	25
25.8834	28.227969
25.9097	23.668225
25.9359	29.789764
25.9622	33.419961
25.9885	24.9001
26.0148	23.464336
26.041	28.558336
26.0673	29.789764
26.0936	31.528225
26.1199	25.836889
26.1461	29.680704
26.1724	31.640625
26.1987	24.9001
26.2249	29.571844
26.2512	26.584336
26.2775	27.237961
26.3038	28.890625
26.33	27.123264
26.3563	26.163225
26.3826	30.1401
26.4088	29.116816
26.4351	26.801329
26.4614	27.888961
26.4877	27.342441
26.5139	28.998225
26.5402	30.019441
26.5665	26.481316
26.5928	25.735329
26.619	28.334329
26.6453	25.948836
26.6716	24.690961
26.6978	33.663204
26.7241	30.481441
26.7504	28.890625
26.7767	25.836889
26.8029	28.334329
26.8292	27.237961
26.8555	30.946969
26.8817	31.877316
26.908	24.482704
26.9343	26.801329
26.9606	27.6676
26.9868	28.227969
27.0131	26.265625
27.0394	31.753225
27.0657	31.877316
27.0919	27.342441
27.1182	27.019204
27.1445	27.5625
27.1707	29.789764
27.197	26.368225
27.2233	33.1776
27.2496	30.481441
27.2758	31.753225
27.3021	34.269316
27.3284	29.116816
27.3546	29.571844
27.3809	29.789764
27.4072	30.946969
27.4335	25.633969
27.4597	25.948836
27.486	24.482704
27.5123	27.888961
27.5386	24.383844
27.5648	29.343889
27.5911	28.558336
27.6174	33.419961
27.6436	26.915344
27.6699	30.591961
27.6962	31.640625
27.7225	28.558336
27.7487	30.824704
27.775	30.3601
27.8013	29.116816
27.8275	31.753225
27.8538	26.481316
27.8801	29.680704
27.9064	31.877316
27.9326	31.640625
27.9589	30.824704
27.9852	28.890625
28.0115	29.909961
28.0377	38.9376
28.064	31.640625
28.0903	31.528225
28.1165	36.881329
28.1428	36.372961
28.1691	34.515625
28.1954	33.907329
28.2216	44.997264
28.2479	39.589264
28.2742	38.415204
28.3004	48.566961
28.3267	54.390625
28.353	72.607441
28.3793	84.217329
28.4055	125.619264
28.4318	178.329316
28.4581	252.682816
28.4844	336.869316
28.5106	355.888225
28.5369	364.962816
28.5632	294.328336
28.5894	226.893969
28.6157	134.165889
28.642	92.236816
28.6683	78.393316
28.6945	52.113961
28.7208	43.758225
28.7471	47.403225
28.7733	40.768225
28.7996	36.759969
28.8259	48.8601
28.8522	42.3801
28.8784	42.25
28.9047	42.1201
28.931	42.928704
28.9573	52.5625
28.9835	48.706441
29.0098	63.8401
29.0361	84.989961
29.0623	103.144336
29.0886	181.413961
29.1149	264.3876
29.1412	354.305329
29.1674	496.933264
29.1937	471.714961
29.22	397.085329
29.2462	309.161889
29.2725	181.117764
29.2988	116.683204
29.3251	74.753316
29.3513	59.737441
29.3776	43.758225
29.4039	39.980329
29.4302	36.252441
29.4564	36.1201
29.4827	36
29.509	32.228329
29.5352	31.877316
29.5615	32.821441
29.5878	29.571844
29.6141	27.5625
29.6403	36.505764
29.6666	26.697889
29.6929	31.753225
29.7191	33.419961
29.7454	28.111204
29.7717	28.111204
29.798	30.1401
29.8242	33.1776
29.8505	30.3601
29.8768	28.890625
29.9031	30.3601
29.9293	30.946969
29.9556	30.824704
29.9819	27.783441
30.0081	29.909961
30.0344	26.697889
30.0607	29.224836
30.087	29.909961
30.1132	26.697889
30.1395	30.1401
30.1658	26.265625
30.192	26.697889
30.2183	25.948836
30.2446	29.789764
30.2709	31.753225
30.2971	30.25
30.3234	25.836889
30.3497	27.6676
30.376	26.163225
30.4022	34.633225
30.4285	26.915344
30.4548	27.6676
30.481	29.680704
30.5073	30.591961
30.5336	28.334329
30.5599	27.019204
30.5861	26.163225
30.6124	27.123264
30.6387	23.863225
30.665	27.342441
30.6912	25.522704
30.7175	25
30.7438	22.6576
30.77	34.762816
30.7963	27.783441
30.8226	27.5625
30.8489	24.581764
30.8751	27.123264
30.9014	26.163225
30.9277	26.265625
30.9539	25.522704
30.9802	25.836889
31.0065	23.464336
31.0328	26.368225
31.059	25.1001
31.0853	28.227969
31.1116	25.310961
31.1379	25
31.1641	27.019204
31.1904	28.890625
31.2167	29.909961
31.2429	28.783225
31.2692	27.123264
31.2955	25.948836
31.3218	26.368225
31.348	29.789764
31.3743	24.068836
31.4006	30.1401
31.4268	27.342441
31.4531	28.890625
31.4794	27.783441
31.5057	26.584336
31.5319	25.1001
31.5582	27.5625
31.5845	26.915344
31.6108	32.114889
31.637	31.990336
31.6633	32.706961
31.6896	29.343889
31.7158	34.762816
31.7421	35.378704
31.7684	39.980329
31.7947	39.0625
31.8209	41.576704
31.8472	43.072969
31.8735	48.566961
31.8997	57.032704
31.926	69.105969
31.9523	89.661961
31.9786	111.344704
32.0048	169
32.0311	198.049329
32.0574	325.116961
32.0837	402.082704
32.1099	477.160336
32.1362	520.432969
32.1625	438.399844
32.1887	375.778225
32.215	277.788889
32.2413	184.226329
32.2676	121.925764
32.2938	86.527204
32.3201	77.475204
32.3464	65.011969
32.3726	56.4001
32.3989	43.758225
32.4252	62.346816
32.4515	60.543961
32.4777	66.357316
32.504	77.668969
32.5303	79.138816
32.5566	93.644329
32.5828	114.661264
32.6091	101.666889
32.6354	92.833225
32.6616	73.136704
32.6879	64.1601
32.7142	46.977316
32.7405	38.675961
32.7667	38.291344
32.793	30.1401
32.8193	27.019204
32.8455	28.890625
32.8718	24.581764
32.8981	26.163225
32.9244	25.836889
32.9506	27.019204
32.9769	23.863225
33.0032	30.824704
33.0295	23.357889
33.0557	27.783441
33.082	23.059204
33.1083	23.464336
33.1345	26.915344
33.1608	23.765625
33.1871	27.783441
33.2134	27.237961
33.2396	19.598329
33.2659	21.874329
33.2922	22.762441
33.3184	23.164969
33.3447	24.482704
33.371	21.780889
33.3973	25.310961
33.4235	27.888961
33.4498	22.268961
33.4761	25.735329
33.5024	19.873764
33.5286	21.196816
33.5549	21.196816
33.5812	21.298225
33.6074	22.6576
33.6337	24.9001
33.66	23.970816
33.6863	18.0625
33.7125	23.357889
33.7388	21.390625
33.7651	22.5625
33.7913	19.598329
33.8176	24.9001
33.8439	22.268961
33.8702	25.1001
33.8964	22.363441
33.9227	20.629764
33.949	22.165264
33.9753	26.801329
34.0015	22.762441
34.0278	24.383844
34.0541	20.061441
34.0803	22.5625
34.1066	22.6576
34.1329	21.483225
34.1592	19.324816
34.1854	27.4576
34.2117	23.765625
34.238	25.310961
34.2642	24.482704
34.2905	25.421764
34.3168	25.421764
34.3431	22.963264
34.3693	22.165264
34.3956	21.483225
34.4219	21.585316
34.4482	21.298225
34.4744	20.912329
34.5007	21.874329
34.527	22.857961
34.5532	20.912329
34.5795	25.735329
34.6058	18.957316
34.6321	20.25
34.6583	18.688329
34.6846	19.598329
34.7109	22.268961
34.7371	20.820969
34.7634	16.760836
34.7897	20.720704
34.816	17.015625
34.8422	23.261329
34.8685	16.842816
34.8948	21.977344
34.9211	20.061441
34.9473	20.820969
34.9736	20.529961
34.9999	20.1601
35.0261	21.196816
35.0524	17.189316
35.0787	17.015625
35.105	21.003889
35.1312	21.977344
35.1575	20.820969
35.1838	19.324816
35.21	17.884441
35.2363	22.857961
35.2626	19.140625
35.2889	16.168441
35.3151	25.948836
35.3414	19.412836
35.3677	20.061441
35.394	19.598329
35.4202	18.421264
35.4465	21.874329
35.4728	18.774889
35.499	22.363441
35.5253	22.165264
35.5516	20.061441
35.5779	16.589329
35.6041	17.799961
35.6304	21.298225
35.6567	18.0625
35.6829	20.1601
35.7092	17.189316
35.7355	17.884441
35.7618	17.189316
35.788	18.241441
35.8143	15.015625
35.8406	16.418704
35.8669	20.629764
35.8931	19.971961
35.9194	17.623204
35.9457	16
35.9719	18.688329
35.9982	19.228225
36.0245	17.799961
36.0508	18.326961
36.077	15.421329
36.1033	18.0625
36.1296	19.228225
36.1558	20.25
36.1821	18.421264
36.2084	19.228225
36.2347	22.4676
36.2609	22.762441
36.2872	19.695844
36.3135	18.421264
36.3398	18.957316
36.366	20.912329
36.3923	18.1476
36.4186	18.774889
36.4448	20.25
36.4711	17.884441
36.4974	17.447329
36.5237	15.586704
36.5499	19.873764
36.5762	19.324816
36.6025	15.507844
36.6287	21.483225
36.655	17.623204
36.6813	18.957316
36.7076	18.0625
36.7338	16.589329
36.7601	18.1476
36.7864	17.098225
36.8127	17.272336
36.8389	18.957316
36.8652	18.774889
36.8915	15.507844
36.9177	16.418704
36.944	17.447329
36.9703	18.1476
36.9966	19.695844
37.0228	15.015625
37.0491	20.529961
37.0754	18.507204
37.1016	17.189316
37.1279	14.776336
37.1542	19.324816
37.1805	22.363441
37.2067	18.326961
37.233	17.189316
37.2593	18.326961
37.2856	17.799961
37.3118	15.586704
37.3381	19.228225
37.3644	18.0625
37.3906	15.9201
37.4169	21.298225
37.4432	16.842816
37.4695	16.0801
37.4957	16.507969
37.522	15.752961
37.5483	17.189316
37.5745	21.003889
37.6008	18.774889
37.6271	18.1476
37.6534	17.015625
37.6796	16.168441
37.7059	18.507204
37.7322	20.1601
37.7585	18.241441
37.7847	20.720704
37.811	22.5625
37.8373	20.529961
37.8635	20.529961
37.8898	25.948836
37.9161	23.059204
37.9424	21.585316
37.9686	20.720704
37.9949	23.464336
38.0212	19.873764
38.0474	23.561316
38.0737	26.584336
38.1	21.780889
38.1263	28.440889
38.1525	27.5625
38.1788	26.265625
38.2051	22.165264
38.2314	21.390625
38.2576	24.275329
38.2839	26.163225
38.3102	24.9001
38.3364	22.6576
38.3627	28.227969
38.389	33.663204
38.4153	36.626704
38.4415	41.306329
38.4678	53.934336
38.4941	55.160329
38.5204	69.973225
38.5466	83.083225
38.5729	85.7476
38.5992	86.731969
38.6254	74.028816
38.6517	69.272329
38.678	59.413264
38.7043	47.983329
38.7305	40.373316
38.7568	33.0625
38.7831	28.440889
38.8093	27.4576
38.8356	24.176889
38.8619	23.970816
38.8882	23.261329
38.9144	19.784704
38.9407	22.363441
38.967	20.1601
38.9933	21.298225
39.0195	18.688329
39.0458	15.9201
39.0721	19.873764
39.0983	15.507844
39.1246	17.447329
39.1509	20.25
39.1772	19.140625
39.2034	15.586704
39.2297	19.324816
39.256	21.104836
39.2822	19.598329
39.3085	14.938225
39.3348	17.447329
39.3611	17.623204
39.3873	18.688329
39.4136	18.326961
39.4399	15.256836
39.4662	16.760836
39.4924	18.507204
39.5187	17.884441
39.545	17.799961
39.5712	16.418704
39.5975	17.447329
39.6238	15.093225
39.6501	15.093225
39.6763	18.241441
39.7026	17.189316
39.7289	16.842816
39.7551	19.412836
39.7814	21.298225
39.8077	16.589329
39.834	15.752961
39.8602	16.933225
39.8865	16.842816
39.9128	18.957316
39.9391	16
39.9653	19.053225
39.9916	17.189316
40.0179	19.695844
40.0441	17.799961
40.0704	15.832441
40.0967	19.509889
40.123	18.507204
40.1492	14.938225
40.1755	18.241441
40.2018	17.884441
40.228	15.178816
40.2543	16.418704
40.2806	18.870336
40.3069	16.589329
40.3331	17.623204
40.3594	22.363441
40.3857	21.298225
40.412	19.228225
40.4382	18.870336
40.4645	20.629764
40.4908	18.688329
40.517	20.629764
40.5433	20.3401
40.5696	19.873764
40.5959	19.228225
40.6221	20.3401
40.6484	19.873764
40.6747	19.784704
40.7009	25.735329
40.7272	25.735329
40.7535	25.948836
40.7798	29.116816
40.806	30.019441
40.8323	32.353344
40.8586	40.373316
40.8849	37.136836
40.9111	47.554816
40.9374	50.908225
40.9637	46.416969
40.9899	45.6976
41.0162	44.302336
41.0425	32.9476
41.0688	36.1201
41.095	35.259844
41.1213	30.019441
41.1476	32.821441
41.1738	36.372961
41.2001	34.633225
41.2264	39.1876
41.2527	39.853969
41.2789	40.513225
41.3052	38.031889
41.3315	44.169316
41.3578	37.393225
41.384	34.023889
41.4103	29.789764
41.4366	30.019441
41.4628	26.584336
41.4891	22.857961
41.5154	19.412836
41.5417	19.140625
41.5679	22.5625
41.5942	17.098225
41.6205	22.071204
41.6467	18.1476
41.673	22.363441
41.6993	19.324816
41.7256	18.601969
41.7518	16.248961
41.7781	18.688329
41.8044	18.0625
41.8307	19.324816
41.8569	19.228225
41.8832	15.342889
41.9095	16.589329
41.9357	17.015625
41.962	12.694969
41.9883	18.774889
42.0146	17.189316
42.0408	18.507204
42.0671	19.324816
42.0934	16.507969
42.1196	17.539344
42.1459	17.272336
42.1722	16.168441
42.1985	15.832441
42.2247	16.589329
42.251	19.140625
42.2773	19.140625
42.3036	20.629764
42.3298	16.507969
42.3561	16.0801
42.3824	16.670889
42.4086	16.337764
42.4349	16
42.4612	20.912329
42.4875	15.256836
42.5137	15.9201
42.54	16.0801
42.5663	16.248961
42.5925	19.324816
42.6188	16.418704
42.6451	20.439441
42.6714	19.695844
42.6976	15.507844
42.7239	17.884441
42.7502	20.1601
42.7765	19.053225
42.8027	14.853316
42.829	17.884441
42.8553	16.418704
42.8815	19.412836
42.9078	17.799961
42.9341	21.874329
42.9604	16.168441
42.9866	16.248961
43.0129	15.507844
43.0392	18.601969
43.0654	19.509889
43.0917	16.670889
43.118	18.688329
43.1443	18.1476
43.1705	14.776336
43.1968	17.9776
43.2231	20.820969
43.2494	20.529961
43.2756	18.774889
43.3019	24.068836
43.3282	19.140625
43.3544	21.196816
43.3807	21.874329
43.407	27.123264
43.4333	21.003889
43.4595	25.836889
43.4858	23.765625
43.5121	23.561316
43.5383	26.481316
43.5646	17.9776
43.5909	16.168441
43.6172	19.053225
43.6434	17.098225
43.6697	17.363889
43.696	15.586704
43.7223	18.241441
43.7485	14.776336
43.7748	15.9201
43.8011	16.337764
43.8273	16.933225
43.8536	15.093225
43.8799	17.707264
43.9062	18.241441
43.9324	14.776336
43.9587	16.248961
43.985	16.168441
44.0112	15.665764
44.0375	14.455204
44.0638	14.379264
44.0901	14.455204
44.1163	16.842816
44.1426	15.507844
44.1689	16
44.1952	15.256836
44.2214	20.061441
44.2477	15.342889
44.274	16.760836
44.3002	18.957316
44.3265	15.178816
44.3528	16.248961
44.3791	17.363889
44.4053	17.098225
44.4316	17.884441
44.4579	20.25
44.4841	19.053225
44.5104	15.9201
44.5367	15.421329
44.563	14.455204
44.5892	16
44.6155	15.507844
44.6418	18.421264
44.6681	16.507969
44.6943	16.168441
44.7206	19.228225
44.7469	14.938225
44.7731	15.421329
44.7994	17.363889
44.8257	16.933225
44.852	15.586704
44.8782	20.720704
44.9045	15.9201
44.9308	21.104836
44.957	15.421329
44.9833	18.241441
45.0096	13.520329
45.0359	17.707264
45.0621	18.0625
45.0884	15.832441
45.1147	15.832441
45.141	17.623204
45.1672	16.933225
45.1935	15.9201
45.2198	15.9201
45.246	16.418704
45.2723	17.799961
45.2986	14.0625
45.3249	16.933225
45.3511	15.093225
45.3774	16.842816
45.4037	15.832441
45.4299	15.832441
45.4562	17.015625
45.4825	18.326961
45.5088	17.363889
45.535	19.140625
45.5613	16
45.5876	12.837889
45.6139	17.015625
45.6401	13.675204
45.6664	17.9776
45.6927	16.507969
45.7189	16.337764
45.7452	17.098225
45.7715	18.601969
45.7978	17.015625
45.824	18.1476
45.8503	15.421329
45.8766	13.905441
45.9028	17.015625
45.9291	15.178816
45.9554	17.363889
45.9817	17.623204
46.0079	17.9776
46.0342	16.842816
46.0605	17.363889
46.0868	18.601969
46.113	18.326961
46.1393	19.695844
46.1656	14.295961
46.1918	14.0625
46.2181	13.749264
46.2444	17.272336
46.2707	16.248961
46.2969	18.688329
46.3232	15.015625
46.3495	17.707264
46.3758	17.447329
46.402	18.870336
46.4283	13.905441
46.4546	17.799961
46.4808	13.749264
46.5071	17.098225
46.5334	16
46.5597	15.665764
46.5859	18.870336
46.6122	17.539344
46.6385	14.853316
46.6647	17.707264
46.691	19.971961
46.7173	20.061441
46.7436	17.799961
46.7698	15.832441
46.7961	18.688329
46.8224	15.9201
46.8487	17.363889
46.8749	20.912329
46.9012	17.9776
46.9275	19.598329
46.9537	18.688329
46.98	18.507204
47.0063	17.799961
47.0326	16.933225
47.0588	17.623204
47.0851	20.061441
47.1114	19.228225
47.1376	20.25
47.1639	16.248961
47.1902	16.507969
47.2165	13.675204
47.2427	15.342889
47.269	17.363889
47.2953	16.760836
47.3216	13.601344
47.3478	15.752961
47.3741	15.665764
47.4004	19.784704
47.4266	19.053225
47.4529	15.093225
47.4792	18.241441
47.5055	16.842816
47.5317	16.589329
47.558	17.015625
47.5843	15.665764
47.6105	20.529961
47.6368	15.093225
47.6631	18.507204
47.6894	14.220441
47.7156	18.688329
47.7419	15.421329
47.7682	15.342889
47.7945	13.905441
47.8207	12.988816
47.847	15.752961
47.8733	16.507969
47.8995	14.853316
47.9258	16
47.9521	13.749264
47.9784	16.842816
48.0046	17.799961
48.0309	15.178816
48.0572	16
48.0834	18.507204
48.1097	13.520329
48.136	15.832441
48.1623	15.015625
48.1885	14.0625
48.2148	14.0625
48.2411	16.933225
48.2674	18.957316
48.2936	17.363889
48.3199	17.272336
48.3462	15.9201
48.3724	16.760836
48.3987	18.241441
48.425	19.509889
48.4513	16.168441
48.4775	16.168441
48.5038	16.670889
48.5301	16.0801
48.5563	18.326961
48.5826	16.337764
48.6089	23.164969
48.6352	19.598329
48.6614	16.248961
48.6877	21.298225
48.714	21.678336
48.7403	22.268961
48.7665	18.774889
48.7928	20.720704
48.8191	17.015625
48.8453	18.688329
48.8716	18.0625
48.8979	16.933225
48.9242	18.421264
48.9504	17.9776
48.9767	19.053225
49.003	17.707264
49.0292	14.776336
49.0555	17.098225
49.0818	19.971961
49.1081	18.326961
49.1343	20.820969
49.1606	15.9201
49.1869	15.093225
49.2132	15.421329
49.2394	15.015625
49.2657	15.752961
49.292	19.509889
49.3182	13.9876
49.3445	18.326961
49.3708	14.853316
49.3971	14.776336
49.4233	21.104836
49.4496	18.507204
49.4759	13.601344
49.5021	17.447329
49.5284	17.363889
49.5547	18.957316
49.581	15.178816
49.6072	16.248961
49.6335	17.189316
49.6598	14.938225
49.6861	15.093225
49.7123	15.832441
49.7386	19.695844
49.7649	18.957316
49.7911	19.140625
49.8174	16.418704
49.8437	13.140625
49.87	14.691889
49.8962	15.507844
49.9225	16.248961
49.9488	17.884441
49.975	13.675204
50.0013	12.837889
50.0276	16.670889
50.0539	15.015625
50.0801	17.363889
50.1064	17.623204
50.1327	16.0801
50.159	19.598329
50.1852	19.509889
50.2115	18.507204
50.2378	17.539344
50.264	16.589329
50.2903	18.241441
50.3166	18.507204
50.3429	19.598329
50.3691	20.529961
50.3954	23.261329
50.4217	26.584336
50.4479	23.765625
50.4742	27.237961
50.5005	31.753225
50.5268	31.753225
50.553	32.821441
50.5793	44.169316
50.6056	39.0625
50.6319	36.252441
50.6581	34.398225
50.6844	29.680704
50.7107	26.584336
50.7369	24.9001
50.7632	21.298225
50.7895	20.820969
50.8158	20.912329
50.842	20.061441
50.8683	15.752961
50.8946	18.421264
50.9208	16.168441
50.9471	17.363889
50.9734	13.520329
50.9997	14.538969
51.0259	16.0801
51.0522	16.418704
51.0785	20.629764
51.1048	15.015625
51.131	12.033961
51.1573	13.520329
51.1836	18.421264
51.2098	17.098225
51.2361	17.623204
51.2624	14.853316
51.2887	16.933225
51.3149	16.418704
51.3412	14.938225
51.3675	13.830961
51.3937	11.819844
51.42	15.752961
51.4463	16.168441
51.4726	14.455204
51.4988	15.421329
51.5251	16.248961
51.5514	14.938225
51.5777	16
51.6039	15.832441
51.6302	15.093225
51.6565	13.749264
51.6827	13.293316
51.709	16
51.7353	15.832441
51.7616	16.760836
51.7878	13.749264
51.8141	12.988816
51.8404	15.586704
51.8666	13.366336
51.8929	15.832441
51.9192	15.178816
51.9455	15.015625
51.9717	13.446889
51.998	13.9876
52.0243	14.295961
52.0506	16.0801
52.0768	15.586704
52.1031	16.842816
52.1294	13.140625
52.1556	15.256836
52.1819	12.616704
52.2082	15.178816
52.2345	15.586704
52.2607	15.178816
52.287	15.421329
52.3133	15.586704
52.3395	14.776336
52.3658	14.853316
52.3921	15.015625
52.4184	14.1376
52.4446	15.507844
52.4709	15.507844
52.4972	16.842816
52.5235	12.25
52.5497	15.752961
52.576	13.749264
52.6023	13.293316
52.6285	14.938225
52.6548	16.0801
52.6811	13.749264
52.7074	15.586704
52.7336	20.3401
52.7599	15.507844
52.7862	16.589329
52.8124	14.615329
52.8387	13.140625
52.865	16.337764
52.8913	15.093225
52.9175	15.752961
52.9438	18.957316
52.9701	19.873764
52.9964	16.670889
53.0226	14.455204
53.0489	15.256836
53.0752	16
53.1014	18.601969
53.1277	19.598329
53.154	21.977344
53.1803	18.774889
53.2065	19.324816
53.2328	15.093225
53.2591	17.9776
53.2853	17.447329
53.3116	15.342889
53.3379	18.507204
53.3642	15.832441
53.3904	16.589329
53.4167	16.670889
53.443	13.905441
53.4693	14.379264
53.4955	16.589329
53.5218	16.0801
53.5481	14.455204
53.5743	20.25
53.6006	16.933225
53.6269	18.326961
53.6532	16.933225
53.6794	15.832441
53.7057	16.248961
53.732	19.695844
53.7583	15.586704
53.7845	18.1476
53.8108	14.455204
53.8371	15.342889
53.8633	17.272336
53.8896	14.538969
53.9159	12.3201
53.9422	14.538969
53.9684	16.507969
53.9947	14.0625
54.021	13.140625
54.0472	13.601344
54.0735	15.507844
54.0998	11.675889
54.1261	12.616704
54.1523	12.988816
54.1786	11.458225
54.2049	14.776336
54.2312	13.446889
54.2574	13.446889
54.2837	12.397441
54.31	11.249316
54.3362	9.897316
54.3625	12.467961
54.3888	12.916836
54.4151	12.545764
54.4413	11.323225
54.4676	13.068225
54.4939	14.538969
54.5201	11.957764
54.5464	13.520329
54.5727	12.694969
54.599	15.256836
54.6252	12.25
54.6515	12.103441
54.6778	12.988816
54.7041	13.830961
54.7303	12.545764
54.7566	15.342889
54.7829	12.694969
54.8091	13.9876
54.8354	15.421329
54.8617	16.248961
54.888	12.916836
54.9142	14.938225
54.9405	14.853316
54.9668	17.189316
54.993	15.178816
55.0193	20.439441
55.0456	19.324816
55.0719	18.870336
55.0981	22.363441
55.1244	17.9776
55.1507	16.589329
55.177	18.870336
55.2032	15.015625
55.2295	18.870336
55.2558	14.295961
55.282	14.538969
55.3083	13.830961
55.3346	11.675889
55.3609	12.033961
55.3871	14.538969
55.4134	12.545764
55.4397	13.675204
55.4659	13.830961
55.4922	10.975969
55.5185	10.4976
55.5448	12.916836
55.571	12.103441
55.5973	12.837889
55.6236	12.616704
55.6499	9.443329
55.6761	10.837264
55.7024	12.397441
55.7287	10.4976
55.7549	11.458225
55.7812	12.033961
55.8075	11.675889
55.8338	14.853316
55.86	12.103441
55.8863	11.182336
55.9126	10.4976
55.9388	9.897316
55.9651	11.744329
55.9914	10.426441
56.0177	9.828225
56.0439	9.314704
56.0702	13.366336
56.0965	11.390625
56.1228	11.744329
56.149	11.888704
56.1753	10.426441
56.2016	11.888704
56.2278	13.293316
56.2541	10.903204
56.2804	10.163344
56.3067	10.029889
56.3329	11.600836
56.3592	9.253764
56.3855	9.504889
56.4117	11.249316
56.438	9.186961
56.4643	12.988816
56.4906	9.572836
56.5168	10.361961
56.5431	11.323225
56.5694	11.957764
56.5957	11.600836
56.6219	11.108889
56.6482	11.323225
56.6745	11.888704
56.7007	9.703225
56.727	10.4976
56.7533	12.766329
56.7796	10.4976
56.8058	9.634816
56.8321	9.960336
56.8584	10.975969
56.8846	10.6276
56.9109	10.426441
56.9372	11.532816
56.9635	10.699441
56.9897	10.699441
57.016	9.504889
57.0423	11.600836
57.0686	10.227204
57.0948	12.3201
57.1211	10.093329
57.1474	10.764961
57.1736	10.361961
57.1999	13.140625
57.2262	9.703225
57.2525	10.903204
57.2787	12.103441
57.305	11.390625
57.3313	10.361961
57.3575	10.837264
57.3838	10.361961
57.4101	10.163344
57.4364	10.361961
57.4626	8.631844
57.4889	10.837264
57.5152	9.253764
57.5415	11.182336
57.5677	8.9401
57.594	9.126441
57.6203	10.361961
57.6465	9.572836
57.6728	9.504889
57.6991	9.572836
57.7254	9.828225
57.7516	10.5625
57.7779	11.042329
57.8042	10.5625
57.8304	9.703225
57.8567	11.108889
57.883	9.504889
57.9093	11.042329
57.9355	10.764961
57.9618	10.975969
57.9881	11.108889
58.0144	10.699441
58.0406	10.975969
58.0669	9.960336
58.0932	9.253764
58.1194	12.033961
58.1457	9.126441
58.172	9.634816
58.1983	11.042329
58.2245	10.029889
58.2508	10.975969
58.2771	8.9401
58.3033	8.814961
58.3296	9.504889
58.3559	9.703225
58.3822	11.182336
58.4084	14.0625
58.4347	9.572836
58.461	8.265625
58.4873	10.4976
58.5135	9
58.5398	12.616704
58.5661	10.903204
58.5923	11.819844
58.6186	11.957764
58.6449	11.532816
58.6712	10.361961
58.6974	10.093329
58.7237	11.957764
58.75	10.426441
58.7762	9.828225
58.8025	10.093329
58.8288	11.249316
58.8551	12.3201
58.8813	9.0601
58.9076	9.703225
58.9339	11.108889
58.9602	11.390625
58.9864	10.093329
59.0127	8.814961
59.039	10.5625
59.0652	11.108889
59.0915	10.975969
59.1178	10.361961
59.1441	10.163344
59.1703	11.675889
59.1966	11.819844
59.2229	9.828225
59.2491	12.837889
59.2754	11.744329
59.3017	12.1801
59.328	12.545764
59.3542	14.379264
59.3805	14.776336
59.4068	17.189316
59.4331	16.168441
59.4593	18.688329
59.4856	16.670889
59.5119	17.799961
59.5381	18.601969
59.5644	17.884441
59.5907	15.093225
59.617	16
59.6432	16.507969
59.6695	15.342889
59.6958	16.507969
59.722	14.1376
59.7483	14.691889
59.7746	16
59.8009	13.366336
59.8271	14.0625
59.8534	20.061441
59.8797	16.168441
59.906	16
59.9322	16.589329
59.9585	18.326961
59.9848	17.098225
60.011	20.3401
60.0373	14.691889
60.0636	14.538969
60.0899	15.586704
60.1161	16.0801
60.1424	14.691889
60.1687	14.0625
60.1949	14.938225
60.2212	12.033961
60.2475	13.749264
60.2738	14.538969
60.3	9.897316
60.3263	10.903204
60.3526	10.764961
60.3789	9.0601
60.4051	11.744329
60.4314	10.227204
60.4577	10.903204
60.4839	10.426441
60.5102	13.601344
60.5365	11.108889
60.5628	11.675889
60.589	12.988816
60.6153	11.249316
60.6416	10.6276
60.6678	10.227204
60.6941	9.703225
60.7204	10.361961
60.7467	9.703225
60.7729	10.6276
60.7992	10.093329
60.8255	8.508889
60.8518	10.227204
60.878	10.5625
60.9043	13.068225
60.9306	10.4976
60.9568	11.323225
60.9831	8.567329
61.0094	10.4976
61.0357	12.033961
61.0619	10.764961
61.0882	11.532816
61.1145	13.068225
61.1407	12.25
61.167	11.458225
61.1933	12.3201
61.2196	9.703225
61.2458	12.25
61.2721	12.694969
61.2984	11.675889
61.3247	12.694969
61.3509	12.1801
61.3772	13.366336
61.4035	12.033961
61.4297	11.957764
61.456	11.108889
61.4823	10.764961
61.5086	12.397441
61.5348	10.5625
61.5611	12.033961
61.5874	12.3201
61.6137	9.765625
61.6399	9.897316
61.6662	11.957764
61.6925	10.4976
61.7187	9.381969
61.745	10.5625
61.7713	10.227204
61.7976	10.163344
61.8238	10.227204
61.8501	11.600836
61.8764	8.9401
61.9026	10.6276
61.9289	11.532816
61.9552	9.0601
61.9815	10.764961
62.0077	10.4976
62.034	10.5625
62.0603	7.969329
62.0866	7.447441
62.1128	8.508889
62.1391	8.025889
62.1654	10.5625
62.1916	11.182336
62.2179	8.508889
62.2442	7.851204
62.2705	8.323225
62.2967	9.828225
62.323	9.381969
62.3493	9.0601
62.3755	9.828225
62.4018	10.227204
62.4281	8.874441
62.4544	10.903204
62.4806	9.634816
62.5069	10.764961
62.5332	12.103441
62.5595	8.508889
62.5857	8.690704
62.612	10.699441
62.6383	12.033961
62.6645	9.828225
62.6908	10.4976
62.7171	9.828225
62.7434	9.443329
62.7696	9.828225
62.7959	10.903204
62.8222	9.765625
62.8484	10.4976
62.8747	10.699441
62.901	10.6276
62.9273	8.749764
62.9535	8.814961
62.9798	9
63.0061	8.323225
63.0324	10.093329
63.0586	9.703225
63.0849	10.227204
63.1112	6.461764
63.1374	8.386816
63.1637	9.765625
63.19	7.795264
63.2163	7.733961
63.2425	10.5625
63.2688	8.208225
63.2951	7.851204
63.3213	9.634816
63.3476	9.572836
63.3739	8.208225
63.4002	9.960336
63.4264	8.874441
63.4527	9.897316
63.479	9.126441
63.5053	10.093329
63.5315	7.969329
63.5578	8.508889
63.5841	8.749764
63.6103	8.208225
63.6366	8.386816
63.6629	9.960336
63.6892	6.355441
63.7154	7.6176
63.7417	9
63.768	10.699441
63.7942	8.874441
63.8205	10.699441
63.8468	6.890625
63.8731	9
63.8993	9.0601
63.9256	8.690704
63.9519	8.265625
63.9782	9.504889
64.0044	9.0601
64.0307	8.145316
64.057	8.814961
64.0832	7.912969
64.1095	7.5076
64.1358	10.163344
64.1621	8.631844
64.1883	7.5076
64.2146	9.0601
64.2409	10.093329
64.2671	8.265625
64.2934	9.504889
64.3197	8.814961
64.346	10.4976
64.3722	8.386816
64.3985	8.088336
64.4248	9.381969
64.4511	8.631844
64.4773	10.426441
64.5036	5.841889
64.5299	8.444836
64.5561	8.386816
64.5824	8.386816
64.6087	9.443329
64.635	8.749764
64.6612	8.323225
64.6875	8.208225
64.7138	8.567329
64.74	9
64.7663	9.634816
64.7926	8.088336
64.8189	7.678441
64.8451	6.838225
64.8714	9.703225
64.8977	7.447441
64.924	7.392961
64.9502	8.265625
64.9765	9.186961
65.0028	10.227204
65.029	9.634816
65.0553	10.093329
65.0816	7.225344
65.1079	8.208225
65.1341	8.508889
65.1604	10.227204
65.1867	8.265625
65.2129	9.314704
65.2392	10.5625
65.2655	7.912969
65.2918	8.386816
65.318	8.145316
65.3443	6.780816
65.3706	7.5076
65.3969	9.634816
65.4231	7.054336
65.4494	7.6176
65.4757	6.838225
65.5019	7.912969
65.5282	7.851204
65.5545	7.5625
65.5808	8.508889
65.607	7.969329
65.6333	10.426441
65.6596	7.447441
65.6858	8.208225
65.7121	8.874441
65.7384	8.874441
65.7647	8.145316
65.7909	8.088336
65.8172	10.291264
65.8435	8.508889
65.8698	9.828225
65.896	10.4976
65.9223	9.0601
65.9486	7.166329
65.9748	7.166329
66.0011	8.814961
66.0274	9.504889
66.0537	10.5625
66.0799	7.001316
66.1062	9.897316
66.1325	6.095961
66.1587	10.029889
66.185	8.208225
66.2113	9.960336
66.2376	8.690704
66.2638	8.874441
66.2901	8.567329
66.3164	10.699441
66.3427	10.4976
66.3689	8.088336
66.3952	8.690704
66.4215	9.572836
66.4477	9.0601
66.474	10.426441
66.5003	10.903204
66.5266	9.381969
66.5528	10.699441
66.5791	10.6276
66.6054	12.033961
66.6316	11.390625
66.6579	9
66.6842	10.291264
66.7105	8.323225
66.7367	11.042329
66.763	9
66.7893	9.253764
66.8156	10.6276
66.8418	9.443329
66.8681	6.890625
66.8944	8.088336
66.9206	9.504889
66.9469	10.426441
66.9732	8.323225
66.9995	8.386816
67.0257	9.443329
67.052	8.265625
67.0783	10.163344
67.1045	7.6176
67.1308	7.969329
67.1571	7.5076
67.1834	9.897316
67.2096	10.093329
67.2359	10.5625
67.2622	9.828225
67.2885	9.186961
67.3147	8.749764
67.341	12.916836
67.3673	9.504889
67.3935	7.851204
67.4198	8.088336
67.4461	7.795264
67.4724	9.186961
67.4986	7.333264
67.5249	8.265625
67.5512	8.749764
67.5774	9.381969
67.6037	6.943225
67.63	8.690704
67.6563	6.620329
67.6825	7.851204
67.7088	9.253764
67.7351	8.749764
67.7614	8.444836
67.7876	9
67.8139	8.9401
67.8402	7.733961
67.8664	7.912969
67.8927	9.186961
67.919	7.054336
67.9453	7.5076
67.9715	8.814961
67.9978	6.620329
68.0241	7.112889
68.0503	9.443329
68.0766	7.851204
68.1029	9.253764
68.1292	7.5076
68.1554	8.088336
68.1817	7.678441
68.208	7.5625
68.2343	8.508889
68.2605	6.2001
68.2868	7.6176
68.3131	7.795264
68.3393	8.145316
68.3656	7.447441
68.3919	7.279204
68.4182	7.912969
68.4444	7.5076
68.4707	9.0601
68.497	8.444836
68.5232	8.386816
68.5495	8.631844
68.5758	8.208225
68.6021	9.126441
68.6283	7.054336
68.6546	10.426441
68.6809	9.381969
68.7072	8.690704
68.7334	11.182336
68.7597	9.443329
68.786	9.504889
68.8122	11.108889
68.8385	9.381969
68.8648	9.314704
68.8911	8.690704
68.9173	10.699441
68.9436	6.728836
68.9699	8.631844
68.9961	9.126441
69.0224	9.765625
69.0487	9.443329
69.075	7.333264
69.1012	8.631844
69.1275	8.025889
69.1538	11.458225
69.1801	8.386816
69.2063	7.279204
69.2326	8.208225
69.2589	9.572836
69.2851	5.992704
69.3114	7.733961
69.3377	8.265625
69.364	7.678441
69.3902	8.444836
69.4165	7.447441
69.4428	6.405961
69.4691	7.225344
69.4953	7.333264
69.5216	8.444836
69.5479	9.634816
69.5741	7.392961
69.6004	7.5076
69.6267	8.749764
69.653	6.355441
69.6792	8.088336
69.7055	8.9401
69.7318	8.265625
69.758	7.166329
69.7843	7.279204
69.8106	8.323225
69.8369	7.225344
69.8631	8.749764
69.8894	7.392961
69.9157	8.690704
69.942	6.838225
69.9682	8.386816
69.9945	7.733961
70.0208	7.5625
70.047	6.780816
70.0733	8.508889
70.0996	6.671889
70.1259	7.5625
70.1521	7.678441
70.1784	8.323225
70.2047	8.749764
70.2309	7.912969
70.2572	6.728836
70.2835	5.740816
70.3098	7.166329
70.336	7.112889
70.3623	5.841889
70.3886	7.447441
70.4149	7.054336
70.4411	8.749764
70.4674	6.671889
70.4937	7.5076
70.5199	7.279204
70.5462	6.671889
70.5725	5.890329
70.5988	8.386816
70.625	6.568969
70.6513	9.703225
70.6776	8.265625
70.7038	7.392961
70.7301	6.620329
70.7564	9.126441
70.7827	7.392961
70.8089	7.851204
70.8352	8.567329
70.8615	7.333264
70.8878	8.749764
70.914	5.740816
70.9403	8.088336
70.9666	6.780816
70.9928	6.405961
71.0191	6.512704
71.0454	6.620329
71.0717	7.678441
71.0979	7.5625
71.1242	7.054336
71.1505	6.890625
71.1767	8.874441
71.203	6.355441
71.2293	8.444836
71.2556	7.6176
71.2818	9.253764
71.3081	8.208225
71.3344	9.253764
71.3607	9.314704
71.3869	8.508889
71.4132	9.0601
71.4395	9.897316
71.4657	10.029889
71.492	12.988816
71.5183	10.5625
71.5446	10.5625
71.5708	10.426441
71.5971	8.814961
71.6234	11.744329
71.6496	9.960336
71.6759	8.444836
71.7022	7.969329
71.7285	8.567329
71.7547	9.572836
71.781	7.6176
71.8073	7.795264
71.8336	10.4976
71.8598	8.690704
71.8861	7.912969
71.9124	7.166329
71.9386	6.780816
71.9649	6.620329
71.9912	6.568969
72.0175	5.640625
72.0437	6.095961
72.07	5.943844
72.0963	7.912969
72.1225	6.620329
72.1488	6.728836
72.1751	6.512704
72.2014	7.5076
72.2276	7.166329
72.2539	5.890329
72.2802	5.943844
72.3065	6.405961
72.3327	7.054336
72.359	5.992704
72.3853	6.461764
72.4115	7.447441
72.4378	5.396329
72.4641	7.333264
72.4904	6.512704
72.5166	6.041764
72.5429	7.001316
72.5692	5.0625
72.5954	7.225344
72.6217	6.890625
72.648	6.041764
72.6743	8.025889
72.7005	6.3001
72.7268	7.733961
72.7531	7.6176
72.7794	6.890625
72.8056	7.6176
72.8319	6.838225
72.8582	9.0601
72.8844	7.678441
72.9107	6.405961
72.937	6.25
72.9633	6.568969
72.9895	5.640625
73.0158	7.279204
73.0421	6.041764
73.0683	7.001316
73.0946	7.447441
73.1209	7.112889
73.1472	6.145441
73.1734	7.225344
73.1997	7.447441
73.226	7.733961
73.2523	7.6176
73.2785	6.405961
73.3048	5.740816
73.3311	5.0176
73.3573	6.2001
73.3836	5.740816
73.4099	5.202961
73.4362	7.447441
73.4624	5.890329
73.4887	6.728836
73.515	6.943225
73.5412	6.620329
73.5675	6.2001
73.5938	4.695889
73.6201	4.968441
73.6463	5.890329
73.6726	5.157441
73.6989	6.671889
73.7252	6.838225
73.7514	6.145441
73.7777	6.780816
73.804	7.001316
73.8302	8.265625
73.8565	5.396329
73.8828	6.890625
73.9091	8.088336
73.9353	8.508889
73.9616	5.1076
73.9879	7.733961
74.0141	7.333264
74.0404	5.943844
74.0667	5.740816
74.093	7.6176
74.1192	8.145316
74.1455	5.494336
74.1718	6.095961
74.1981	5.992704
74.2243	7.279204
74.2506	7.001316
74.2769	5.640625
74.3031	5.740816
74.3294	7.225344
74.3557	6.838225
74.382	6.728836
74.4082	6.943225
74.4345	6.461764
74.4608	7.001316
74.487	5.688225
74.5133	5.157441
74.5396	5.349969
74.5659	6.620329
74.5921	5.0176
74.6184	5.788836
74.6447	6.780816
74.671	6.512704
74.6972	5.0176
74.7235	6.3001
74.7498	6.145441
74.776	6.145441
74.8023	6.620329
74.8286	5.640625
74.8549	6.041764
74.8811	6.25
74.9074	8.088336
74.9337	6.145441
74.9599	7.112889
74.9862	6.25
75.0125	7.166329
75.0388	6.2001
75.065	5.890329
75.0913	6.25
75.1176	6.512704
75.1439	7.279204
75.1701	8.025889
75.1964	6.041764
75.2227	6.041764
75.2489	5.890329
75.2752	5.640625
75.3015	6.890625
75.3278	5.396329
75.354	5.593225
75.3803	5.593225
75.4066	6.25
75.4328	5.593225
75.4591	6.461764
75.4854	6.671889
75.5117	8.025889
75.5379	6.3001
75.5642	5.992704
75.5905	6.145441
75.6168	6.512704
75.643	5.740816
75.6693	5.788836
75.6956	5.943844
75.7218	5.494336
75.7481	5.253264
75.7744	5.788836
75.8007	6.25
75.8269	7.333264
75.8532	6.838225
75.8795	6.461764
75.9057	5.202961
75.932	7.912969
75.9583	5.890329
75.9846	5.943844
76.0108	6.780816
76.0371	6.355441
76.0634	6.461764
76.0897	6.041764
76.1159	6.405961
76.1422	7.279204
76.1685	6.2001
76.1947	7.795264
76.221	7.795264
76.2473	5.788836
76.2736	6.780816
76.2998	6.095961
76.3261	6.355441
76.3524	7.054336
76.3786	7.001316
76.4049	8.025889
76.4312	7.6176
76.4575	7.5076
76.4837	6.838225
76.51	8.386816
76.5363	6.943225
76.5626	10.093329
76.5888	7.912969
76.6151	6.461764
76.6414	6.25
76.6676	7.225344
76.6939	10.093329
76.7202	6.568969
76.7465	8.386816
76.7727	6.25
76.799	8.874441
76.8253	7.447441
76.8515	7.054336
76.8778	6.041764
76.9041	5.992704
76.9304	6.568969
76.9566	6.041764
76.9829	5.740816
77.0092	6.25
77.0355	6.890625
77.0617	7.5625
77.088	6.620329
77.1143	4.605316
77.1405	6.2001
77.1668	5.943844
77.1931	6.890625
77.2194	5.740816
77.2456	7.112889
77.2719	5.253264
77.2982	5.494336
77.3245	6.2001
77.3507	6.2001
77.377	5.593225
77.4033	6.355441
77.4295	6.2001
77.4558	5.299204
77.4821	4.384836
77.5084	5.157441
77.5346	4.875264
77.5609	6.512704
77.5872	5.890329
77.6134	8.088336
77.6397	5.541316
77.666	5.943844
77.6923	7.333264
77.7185	5.202961
77.7448	5.253264
77.7711	6.568969
77.7974	5.740816
77.8236	5.541316
77.8499	5.788836
77.8762	5.0625
77.9024	5.253264
77.9287	6.25
77.955	4.695889
77.9813	5.943844
78.0075	5.788836
78.0338	5.442889
78.0601	6.145441
78.0863	6.620329
78.1126	6.25
78.1389	4.558225
78.1652	5.0625
78.1914	5.202961
78.2177	5.841889
78.244	4.558225
78.2703	5.349969
78.2965	6.838225
78.3228	4.384836
78.3491	5.1076
78.3753	5.740816
78.4016	6.512704
78.4279	5.890329
78.4542	7.392961
78.4804	4.968441
78.5067	4.923961
78.533	5.890329
78.5592	4.695889
78.5855	4.739329
78.6118	6.838225
78.6381	4.831204
78.6643	5.890329
78.6906	5.494336
78.7169	5.396329
78.7432	4.831204
78.7694	5.788836
78.7957	5.688225
78.822	6.671889
78.8482	5.890329
78.8745	6.943225
78.9008	5.593225
78.9271	5.494336
78.9533	5.1076
78.9796	4.968441
79.0059	4.558225
79.0321	5.890329
79.0584	6.145441
79.0847	5.396329
79.111	5.202961
79.1372	5.593225
79.1635	5.494336
79.1898	5.1076
79.2161	5.299204
79.2423	4.648336
79.2686	6.145441
79.2949	4.968441
79.3211	4.695889
79.3474	4.605316
79.3737	5.202961
79.4	5.202961
79.4262	6.512704
79.4525	5.541316
79.4788	5.1076
79.505	4.923961
79.5313	4.739329
79.5576	5.640625
79.5839	7.333264
79.6101	5.841889
79.6364	4.384836
79.6627	5.788836
79.689	5.992704
79.7152	5.0176
79.7415	4.515625
79.7678	4.787344
79.794	5.494336
79.8203	6.095961
79.8466	6.3001
79.8729	6.780816
79.8991	4.831204
79.9254	5.992704
79.9517	5.943844
79.9779	6.2001
80.0042	5.943844
80.0305	5.788836
80.0568	5.640625
80.083	5.442889
80.1093	5.992704
80.1356	6.2001
80.1619	5.688225
80.1881	6.355441
80.2144	5.788836
80.2407	4.0401
80.2669	6.512704
80.2932	5.943844
80.3195	5.890329
80.3458	6.2001
80.372	5.541316
80.3983	5.157441
80.4246	3.794704
80.4508	6.095961
80.4771	5.396329
80.5034	4.515625
80.5297	5.202961
80.5559	4.384836
80.5822	4.648336
80.6085	5.992704
80.6348	5.688225
80.661	5.0625
80.6873	6.3001
80.7136	5.593225
80.7398	4.169764
80.7661	5.442889
80.7924	5.640625
80.8187	6.041764
80.8449	4.968441
80.8712	4.831204
80.8975	3.833764
80.9237	4.923961
80.95	5.992704
80.9763	4.695889
81.0026	4.255969
81.0288	4.210704
81.0551	4.968441
81.0814	4.739329
81.1077	4.923961
81.1339	5.157441
81.1602	5.202961
81.1865	5.0176
81.2127	5.442889
81.239	5.157441
81.2653	5.0176
81.2916	4.875264
81.3178	5.299204
81.3441	4.515625
81.3704	6.620329
81.3966	4.968441
81.4229	4.739329
81.4492	4.605316
81.4755	5.640625
81.5017	4.968441
81.528	5.202961
81.5543	6.041764
81.5806	6.2001
81.6068	6.728836
81.6331	6.568969
81.6594	7.112889
81.6856	6.145441
81.7119	4.968441
81.7382	5.640625
81.7645	4.605316
81.7907	4.169764
81.817	5.157441
81.8433	5.299204
81.8695	6.3001
81.8958	5.541316
81.9221	5.541316
81.9484	5.442889
81.9746	6.512704
82.0009	4.831204
82.0272	6.095961
82.0535	5.202961
82.0797	5.593225
82.106	5.688225
82.1323	5.1076
82.1585	5.253264
82.1848	5.442889
82.2111	5.396329
82.2374	5.992704
82.2636	5.0625
82.2899	5.202961
82.3162	6.355441
82.3424	5.593225
82.3687	6.355441
82.395	5.0625
82.4213	6.461764
82.4475	4.968441
82.4738	5.740816
82.5001	4.923961
82.5264	5.253264
82.5526	4.338889
82.5789	4.787344
82.6052	5.253264
82.6314	5.396329
82.6577	5.442889
82.684	5.593225
82.7103	6.890625
82.7365	5.992704
82.7628	7.054336
82.7891	4.787344
82.8153	5.740816
82.8416	5.788836
82.8679	5.396329
82.8942	5.0176
82.9204	5.541316
82.9467	5.688225
82.973	5.0176
82.9993	5.992704
83.0255	4.875264
83.0518	3.794704
83.0781	6.890625
83.1043	4.297329
83.1306	6.671889
83.1569	4.338889
83.1832	5.992704
83.2094	6.838225
83.2357	6.943225
83.262	5.943844
83.2882	6.620329
83.3145	4.968441
83.3408	6.838225
83.3671	6.671889
83.3933	5.992704
83.4196	5.299204
83.4459	5.640625
83.4722	5.943844
83.4984	4.787344
83.5247	5.788836
83.551	5.740816
83.5772	4.558225
83.6035	5.0176
83.6298	4.875264
83.6561	6.780816
83.6823	5.396329
83.7086	6.25
83.7349	6.2001
83.7611	5.841889
83.7874	5.593225
83.8137	6.2001
83.84	4.515625
83.8662	5.442889
83.8925	5.1076
83.9188	5.640625
83.9451	4.558225
83.9713	4.875264
83.9976	6.512704
84.0239	3.713329
84.0501	4.426816
84.0764	5.396329
84.1027	5.0625
84.129	5.299204
84.1552	4.124961
84.1815	5.202961
84.2078	5.841889
84.234	5.299204
84.2603	5.740816
84.2866	4.968441
84.3129	5.202961
84.3391	4.255969
84.3654	6.095961
84.3917	5.396329
84.418	4.084441
84.4442	5.442889
84.4705	4.831204
84.4968	5.740816
84.523	5.157441
84.5493	5.396329
84.5756	4.787344
84.6019	5.640625
84.6281	4.695889
84.6544	4.739329
84.6807	4.169764
84.7069	4.875264
84.7332	4.968441
84.7595	4.0401
84.7858	6.2001
84.812	4.739329
84.8383	5.992704
84.8646	5.1076
84.8909	5.688225
84.9171	5.157441
84.9434	3.876961
84.9697	3.713329
84.9959	4.968441
85.0222	5.841889
85.0485	5.992704
85.0748	5.1076
85.101	4.297329
85.1273	4.695889
85.1536	4.426816
85.1799	5.0625
85.2061	5.0625
85.2324	4.605316
85.2587	5.992704
85.2849	4.255969
85.3112	3.833764
85.3375	5.1076
85.3638	5.1076
85.39	4.875264
85.4163	5.349969
85.4426	5.157441
85.4688	5.442889
85.4951	3.515625
85.5214	5.992704
85.5477	4.605316
85.5739	4.875264
85.6002	5.396329
85.6265	6.512704
85.6528	4.739329
85.679	4.473225
85.7053	4.558225
85.7316	4.084441
85.7578	3.400336
85.7841	4.923961
85.8104	3.916441
85.8367	4.384836
85.8629	4.338889
85.8892	5.0176
85.9155	5.1076
85.9417	5.541316
85.968	4.515625
85.9943	4.084441
86.0206	5.788836
86.0468	5.299204
86.0731	4.515625
86.0994	5.349969
86.1257	3.713329
86.1519	5.1076
86.1782	4.558225
86.2045	5.841889
86.2307	3.916441
86.257	4.124961
86.2833	3.794704
86.3096	3.515625
86.3358	5.157441
86.3621	4.923961
86.3884	6.461764
86.4146	4.923961
86.4409	4.473225
86.4672	3.755844
86.4935	5.0625
86.5197	4.875264
86.546	5.640625
86.5723	5.841889
86.5986	4.473225
86.6248	4.558225
86.6511	4.968441
86.6774	4.558225
86.7036	4.558225
86.7299	4.605316
86.7562	6.620329
86.7825	5.0176
86.8087	3.632836
86.835	4.695889
86.8613	5.943844
86.8875	4.297329
86.9138	3.478225
86.9401	4.473225
86.9664	4.875264
86.9926	5.0176
87.0189	3.833764
87.0452	4.831204
87.0715	5.740816
87.0977	5.688225
87.124	4.739329
87.1503	5.593225
87.1765	6.2001
87.2028	5.442889
87.2291	4.210704
87.2554	4.875264
87.2816	4.515625
87.3079	4.297329
87.3342	4.0401
87.3604	4.648336
87.3867	4.648336
87.413	6.568969
87.4393	6.041764
87.4655	5.442889
87.4918	5.0176
87.5181	4.426816
87.5444	4.605316
87.5706	5.0625
87.5969	5.0625
87.6232	3.478225
87.6494	4.605316
87.6757	4.210704
87.702	4.515625
87.7283	5.349969
87.7545	5.349969
87.7808	4.739329
87.8071	4.169764
87.8333	3.794704
87.8596	4.558225
87.8859	4.605316
87.9122	5.0176
87.9384	5.494336
87.9647	5.202961
87.991	3.833764
88.0173	4.338889
88.0435	4.0401
88.0698	4.515625
88.0961	4.648336
88.1223	5.1076
88.1486	4.875264
88.1749	4.739329
88.2012	5.299204
88.2274	6.2001
88.2537	4.124961
88.28	4.695889
88.3062	4.605316
88.3325	4.923961
88.3588	5.593225
88.3851	5.890329
88.4113	5.640625
88.4376	4.648336
88.4639	4.338889
88.4902	5.442889
88.5164	4.787344
88.5427	5.841889
88.569	4.968441
88.5952	4.695889
88.6215	5.494336
88.6478	5.253264
88.6741	5.0176
88.7003	4.648336
88.7266	4.648336
88.7529	6.355441
88.7791	4.297329
88.8054	5.0625
88.8317	4.648336
88.858	5.157441
88.8842	4.297329
88.9105	5.157441
88.9368	5.442889
88.9631	5.299204
88.9893	6.2001
89.0156	4.968441
89.0419	5.396329
89.0681	4.084441
89.0944	4.255969
89.1207	5.890329
89.147	5.0176
89.1732	5.396329
89.1995	4.831204
89.2258	5.890329
89.252	5.688225
89.2783	4.515625
89.3046	6.25
89.3309	4.787344
89.3571	5.396329
89.3834	3.794704
89.4097	4.831204
89.436	4.968441
89.4622	5.396329
89.4885	5.0625
89.5148	6.095961
89.541	4.875264
89.5673	4.169764
89.5936	5.0176
89.6199	4.210704
89.6461	5.349969
89.6724	3.833764
89.6987	4.875264
89.7249	4.169764
89.7512	5.253264
89.7775	4.297329
89.8038	5.1076
89.83	4.297329
89.8563	5.0176
89.8826	5.541316
89.9089	5.541316
89.9351	4.695889
89.9614	4.473225
89.9877	4.169764
