TwoTheta	Intensity
3.9986	107.6303162
4.0249	99.7007979
4.0512	96.8925504
4.0774	91.5294752
4.1037	88.9148679
4.13	85.82553
4.1563	83.0387177
4.1825	81.99373
4.2088	79.6599576
4.2351	75.7913496
4.2613	77.9476996
4.2876	73.918224
4.3139	73.2025691
4.3402	75.454377
4.3664	73.639336
4.3927	70.8762145
4.419	67.805136
4.4453	72.5606319
4.4715	74.0614545
4.4978	68.7308818
4.5241	68.6170247
4.5503	67.7312155
4.5766	67.6009586
4.6029	67.1240907
4.6292	67.4613316
4.6554	65.9996058
4.6817	65.7404314
4.708	67.72458
4.7342	68.3523796
4.7605	67.1944575
4.7868	70.8542136
4.8131	66.6325564
4.8393	65.8338372
4.8656	67.0528336
4.8919	65.2237027
4.9182	67.9350966
4.9444	66.0275176
4.9707	67.3132194
4.997	64.386345
5.0232	66.607632
5.0495	67.2744885
5.0758	64.767208
5.1021	64.1487033
5.1283	66.2935341
5.1546	63.2520966
5.1809	66.004666
5.2071	65.036679
5.2334	63.7846792
5.2597	63.3899044
5.286	61.227738
5.3122	64.5751032
5.3385	63.9498915
5.3648	65.4398304
5.3911	63.7389753
5.4173	62.4668863
5.4436	61.2405
5.4699	65.8685358
5.4961	63.6063653
5.5224	63.6787944
5.5487	62.5393977
5.575	68.238
5.6012	63.769662
5.6275	63.07302
5.6538	64.8434322
5.68	65.85392
5.7063	64.4355396
5.7326	63.115926
5.7589	61.5511232
5.7851	67.3096385
5.8114	64.7738644
5.8377	62.813652
5.864	63.284288
5.8902	66.7536366
5.9165	67.5486805
5.9428	67.7241488
5.969	69.514974
5.9953	65.9483
6.0216	69.1219464
6.0479	65.7709125
6.0741	68.1453279
6.1004	67.927954
6.1267	66.8177902
6.1529	67.8111109
6.1792	70.6097184
6.2055	66.1940685
6.2318	66.99185
6.258	70.014504
6.2843	66.9655008
6.3106	72.1112262
6.3369	66.3410061
6.3631	72.3802625
6.3894	68.0215524
6.4157	68.968775
6.4419	67.7752299
6.4682	68.1166142
6.4945	67.1076685
6.5208	71.3897184
6.547	71.264095
6.5733	71.2808652
6.5996	72.1864248
6.6258	68.8818168
6.6521	73.1731
6.6784	69.221616
6.7047	68.3745306
6.7309	74.107209
6.7572	72.9912744
6.7835	69.883617
6.8098	71.0806924
6.836	71.921556
6.8623	74.6275125
6.8886	72.0409788
6.9148	72.0314716
6.9411	70.1328744
6.9674	70.1826202
6.9937	71.3916896
7.0199	75.463925
7.0462	78.2410048
7.0725	75.5130825
7.0987	79.4912426
7.125	76.372875
7.1513	71.9635319
7.1776	76.7859648
7.2038	82.2457846
7.2301	82.6183527
7.2564	81.4821156
7.2827	79.8839363
7.3089	84.5858997
7.3352	81.4500608
7.3615	78.9815335
7.3877	78.6494542
7.414	78.543916
7.4403	83.3164794
7.4666	82.8344604
7.4928	83.2000512
7.5191	82.3942978
7.5454	85.753471
7.5717	83.6067114
7.5979	87.2162941
7.6242	82.2803664
7.6505	85.1118125
7.6767	89.3184045
7.703	82.244931
7.7293	84.4580611
7.7556	82.8065412
7.7818	86.4091072
7.8081	86.1311511
7.8344	86.3429224
7.8606	86.8753512
7.8869	91.9297064
7.9132	89.8464728
7.9395	87.5806245
7.9657	93.8439117
7.992	94.905
8.0183	90.8713939
8.0446	90.0834308
8.0708	91.9748368
8.0971	94.5498367
8.1234	93.0779172
8.1496	93.4677624
8.1759	95.2982904
8.2022	95.1783288
8.2285	91.797146
8.2547	102.6719586
8.281	98.593586
8.3073	89.7354546
8.3335	94.101882
8.3598	100.0584462
8.3861	106.1344816
8.4124	104.7175552
8.4386	102.9340428
8.4649	97.34635
8.4912	98.625288
8.5175	100.88127
8.5437	103.3275078
8.57	102.48006
8.5963	106.8262201
8.6225	98.624155
8.6488	105.9478
8.6751	98.2281573
8.7014	105.2347316
8.7276	107.7334944
8.7539	103.7687306
8.7802	115.5123112
8.8064	99.7148672
8.8327	102.8656242
8.859	109.080867
8.8853	105.8861201
8.9115	108.0519375
8.9378	112.3749594
8.9641	108.5014664
8.9904	112.8475008
9.0166	112.2386368
9.0429	118.4981616
9.0692	108.921092
9.0954	107.5349142
9.1217	116.392892
9.148	109.776
9.1743	109.7062794
9.2005	113.570972
9.2268	109.475982
9.2531	109.3994013
9.2793	114.6364722
9.3056	112.4395648
9.3319	114.0264861
9.3582	115.0309944
9.3844	114.1799948
9.4107	109.6911192
9.437	109.799495
9.4633	111.7899629
9.4895	119.510763
9.5158	117.758025
9.5421	113.6082426
9.5683	110.2363843
9.5946	118.0327692
9.6209	114.3443965
9.6472	119.0850368
9.6734	121.6236582
9.6997	115.1839375
9.726	120.660756
9.7522	115.807375
9.7785	111.435786
9.8048	121.6383488
9.8311	114.5913016
9.8573	115.3106954
9.8836	112.2183944
9.9099	119.3350158
9.9362	112.4082306
9.9624	116.4405312
9.9887	116.9476996
10.015	119.869535
10.0412	112.7526348
10.0675	119.23947
10.0938	114.5040672
10.1201	117.0187163
10.1463	114.044412
10.1726	121.4404988
10.1989	117.7157038
10.2251	119.0815146
10.2514	118.2088934
10.2777	114.8738529
10.304	114.096192
10.3302	118.7973
10.3565	113.7040135
10.3828	113.9927612
10.4091	118.0808304
10.4353	110.2280739
10.4616	111.259116
10.4879	112.3044332
10.5141	119.7030285
10.5404	111.2223008
10.5667	113.9195927
10.593	116.300547
10.6192	117.3633984
10.6455	121.6461285
10.6718	113.281157
10.698	114.778842
10.7243	117.6348467
10.7506	105.9364124
10.7769	109.4501964
10.8031	111.2935362
10.8294	111.4561848
10.8557	113.0838269
10.882	106.556544
10.9082	116.2377792
10.9345	112.537874
10.9608	104.3577768
10.987	116.506148
11.0133	108.5250582
11.0396	102.4585276
11.0659	109.0433786
11.0921	110.921
11.1184	107.0146
11.1447	105.986097
11.1709	99.4880354
11.1972	107.3027676
11.2235	101.7185805
11.2498	106.0518646
11.276	102.419908
11.3023	103.0204645
11.3286	109.037775
11.3549	100.0707337
11.3811	102.7827141
11.4074	108.6098554
11.4337	101.3597505
11.4599	102.1879283
11.4862	103.7318722
11.5125	100.0206
11.5388	104.8069204
11.565	97.943985
11.5913	97.3205548
11.6176	105.0463392
11.6438	107.9496698
11.6701	105.7661163
11.6964	97.1035128
11.7227	96.9584517
11.7489	94.7313807
11.7752	97.3926792
11.8015	97.7282215
11.8278	108.4254426
11.854	93.46879
11.8803	102.9665601
11.9066	98.4794886
11.9328	99.1973664
11.9591	101.771941
11.9854	97.0098276
12.0117	96.8503371
12.0379	91.0426377
12.0642	93.2442018
12.0905	93.9552755
12.1167	93.783258
12.143	95.626125
12.1693	96.2104858
12.1956	95.1500712
12.2218	97.652182
12.2481	91.1013678
12.2744	87.9706248
12.3007	91.3572989
12.3269	98.0974702
12.3532	92.772532
12.3795	88.7238765
12.4057	92.0130769
12.432	87.807216
12.4583	86.5602684
12.4846	85.956471
12.5108	90.3154652
12.5371	82.6696374
12.5634	89.639859
12.5896	83.4061
12.6159	86.4693786
12.6422	81.9088138
12.6685	82.471935
12.6947	89.9165601
12.721	85.205258
12.7473	87.6376875
12.7736	93.2728272
12.7998	90.9297792
12.8261	87.2431322
12.8524	90.3652244
12.8786	89.3517268
12.9049	89.2631933
12.9312	87.5571552
12.9575	88.2794475
12.9837	89.6654322
13.01	87.9476
13.0363	83.1064125
13.0625	86.5390625
13.0888	78.2579352
13.1151	89.7597444
13.1414	84.8671612
13.1676	85.721076
13.1939	85.2062062
13.2202	89.104148
13.2465	79.0683585
13.2727	81.1625605
13.299	85.060404
13.3253	81.0577999
13.3515	84.9822975
13.3778	85.6981868
13.4041	82.5156396
13.4304	83.2416192
13.4566	83.6865954
13.4829	80.4794301
13.5092	85.5537636
13.5354	89.807379
13.5617	81.6549957
13.588	83.797196
13.6143	88.0709067
13.6405	89.5226015
13.6668	84.7068264
13.6931	89.5802602
13.7194	95.4595852
13.7456	97.5112864
13.7719	93.9656737
13.7982	101.0442186
13.8244	100.8075248
13.8507	104.6004864
13.877	110.155626
13.9033	123.8227898
13.9295	143.9335235
13.9558	173.8613564
13.9821	228.6632634
14.0083	304.540442
14.0346	415.3399524
14.0609	507.3594547
14.0872	595.325072
14.1134	589.375584
14.1397	481.1881307
14.166	373.48659
14.1923	274.5358512
14.2185	199.201185
14.2448	154.4706112
14.2711	121.9037362
14.2973	115.8653192
14.3236	101.0100272
14.3499	97.6080198
14.3762	101.2372004
14.4024	95.8623744
14.4287	92.7332549
14.455	93.35039
14.4812	90.0585828
14.5075	87.9589725
14.5338	97.957812
14.5601	85.5405875
14.5863	76.578075
14.6126	86.7696188
14.6389	82.4902015
14.6652	86.4660192
14.6914	87.6929666
14.7177	83.7142776
14.744	79.39644
14.7702	77.54355
14.7965	75.6840975
14.8228	82.9187432
14.8491	86.0059872
14.8753	81.81415
14.9016	83.672484
14.9279	81.3271992
14.9542	76.1766948
14.9804	82.542004
15.0067	85.6582436
15.033	85.507704
15.0592	81.5756864
15.0855	79.34973
15.1118	86.1070364
15.1381	83.25955
15.1643	78.6723884
15.1906	84.5053078
15.2169	77.8344435
15.2431	84.6296912
15.2694	79.5230352
15.2957	83.0097639
15.322	82.830732
15.3482	85.2132064
15.3745	79.762906
15.4008	79.7299416
15.4271	80.6683059
15.4533	79.1981625
15.4796	81.7477676
15.5059	84.6312022
15.5321	86.5603933
15.5584	83.470816
15.5847	82.1469537
15.611	81.95775
15.6372	80.7974124
15.6635	78.975367
15.6898	89.5573784
15.716	87.585268
15.7423	78.3809117
15.7686	80.814075
15.7949	75.6891608
15.8211	89.8163847
15.8474	84.1972362
15.8737	83.0035773
15.9	85.3035
15.9262	93.407163
15.9525	86.239215
15.9788	82.7222476
16.005	85.53072
16.0313	84.004012
16.0576	82.6324096
16.0839	85.7754387
16.1101	83.4019877
16.1364	84.3772356
16.1627	85.1935917
16.1889	87.3553044
16.2152	91.7131712
16.2415	87.639134
16.2678	88.7896524
16.294	84.011864
16.3203	81.6015
16.3466	80.3762322
16.3729	85.793996
16.3991	83.1926343
16.4254	86.9232168
16.4517	87.0623964
16.4779	83.4276077
16.5042	91.6313184
16.5305	86.4379845
16.5568	84.3403392
16.583	88.619552
16.6093	87.8964156
16.6356	88.9006464
16.6618	84.3586934
16.6881	86.2274127
16.7144	83.9230024
16.7407	90.6843719
16.7669	85.5782576
16.7932	81.3462608
16.8195	89.6983935
16.8458	89.6701934
16.872	92.272968
16.8983	90.4734982
16.9246	86.3831584
16.9508	92.8734332
16.9771	86.2945993
17.0034	93.348666
17.0297	95.6217655
17.0559	85.108941
17.0822	79.3639012
17.1085	90.538182
17.1347	91.5678368
17.161	90.26686
17.1873	90.233325
17.2136	90.543536
17.2398	93.1983588
17.2661	86.503161
17.2924	84.6635904
17.3187	85.8661146
17.3449	84.9206304
17.3712	86.1264096
17.3975	87.5268225
17.4237	89.8365972
17.45	93.06085
17.4763	88.1155046
17.5026	88.4231352
17.5288	87.644
17.5551	96.377499
17.5814	87.907
17.6076	88.038
17.6339	96.6161381
17.6602	83.709348
17.6865	97.27575
17.7127	87.8195666
17.739	81.297837
17.7653	88.0803574
17.7916	87.4812972
17.8178	83.1556726
17.8441	88.1141658
17.8704	84.8844
17.8966	90.4136232
17.9229	91.8548625
17.9492	90.6793584
17.9755	96.4385575
18.0017	90.5665527
18.028	87.129324
18.0543	92.5282875
18.0805	86.822561
18.1068	84.6855036
18.1331	91.9892163
18.1594	94.3925612
18.1856	98.3113536
18.2119	94.2830063
18.2382	97.0819386
18.2645	95.3224255
18.2907	89.5512672
18.317	95.779593
18.3433	95.9171157
18.3695	87.8245795
18.3958	98.693467
18.4221	95.7580758
18.4484	92.426484
18.4746	96.6036834
18.5009	92.689509
18.5272	89.5419576
18.5534	93.3421554
18.5797	91.5421819
18.606	94.574298
18.6323	93.5527783
18.6585	98.740782
18.6848	84.4739808
18.7111	93.742611
18.7374	90.1831062
18.7636	93.0299288
18.7899	90.8115867
18.8162	101.325237
18.8424	90.0855144
18.8687	97.0983302
18.895	95.854335
18.9213	102.0993348
18.9475	93.75223
18.9738	97.050987
19.0001	95.0005
19.0263	94.941237
19.0526	99.835624
19.0789	98.7714653
19.1052	101.6969796
19.1314	102.2382016
19.1577	103.7772609
19.184	97.512272
19.2103	98.0493712
19.2365	94.181904
19.2628	107.5442124
19.2891	97.8536043
19.3153	91.3420537
19.3416	98.3133528
19.3679	95.6386902
19.3942	98.3867766
19.4204	88.6152852
19.4467	101.900708
19.473	99.390192
19.4992	102.565792
19.5255	95.3820675
19.5518	97.563482
19.5781	95.8543776
19.6043	108.019693
19.6306	88.141394
19.6569	102.5893611
19.6832	88.1610528
19.7094	102.4494612
19.7357	105.2504881
19.762	104.995506
19.7882	96.0519228
19.8145	108.3655005
19.8408	100.8507864
19.8671	105.1366932
19.8933	102.3709218
19.9196	103.1237692
19.9459	108.6652632
19.9721	102.5567335
19.9984	103.7516992
20.0247	103.4676249
20.051	115.09274
20.0772	132.5898288
20.1035	133.808896
20.1298	124.7645004
20.1561	160.2006828
20.1823	183.3158309
20.2086	211.1394528
20.2349	224.6883296
20.2611	233.00265
20.2874	240.0608042
20.3137	212.0344006
20.34	195.9759
20.3662	158.8970924
20.3925	139.1380275
20.4188	120.164638
20.445	132.68805
20.4713	116.2155701
20.4976	119.7879744
20.5239	115.8779394
20.5501	107.0249208
20.5764	108.8903088
20.6027	110.9455395
20.629	99.926876
20.6552	103.276
20.6815	111.1630625
20.7078	104.1809418
20.734	111.23791
20.7603	105.5246049
20.7866	89.6526058
20.8129	96.6967334
20.8391	107.6756297
20.8654	111.0665242
20.8917	109.681425
20.9179	109.818975
20.9442	102.5428032
20.9705	99.40017
20.9968	104.774032
21.023	109.719037
21.0493	111.6033886
21.0756	109.7617248
21.1019	103.5259214
21.1281	99.7035039
21.1544	105.772
21.1807	112.3000714
21.2069	108.2400176
21.2332	114.7866792
21.2595	98.3251875
21.2858	101.10755
21.312	111.227328
21.3383	104.6856998
21.3646	113.9374118
21.3908	103.8309432
21.4171	104.1941915
21.4434	109.897425
21.4697	113.6176524
21.4959	108.5972868
21.5222	103.5863486
21.5485	112.6771065
21.5748	106.2990396
21.601	117.466238
21.6273	112.4187054
21.6536	106.9254768
21.6798	111.325773
21.7061	105.3614094
21.7324	115.6815652
21.7587	111.2957505
21.7849	111.4297635
21.8112	102.4690176
21.8375	105.1038875
21.8637	115.2435627
21.89	115.38219
21.9163	106.1625572
21.9426	116.8004598
21.9688	113.0514448
21.9951	105.8624163
22.0214	118.365025
22.0477	107.0195358
22.0739	112.6651856
22.1002	108.8876854
22.1265	111.0971565
22.1527	105.446852
22.179	109.519902
22.2053	115.4231494
22.2316	111.380316
22.2578	114.5386388
22.2841	111.4205
22.3104	117.5981184
22.3366	113.3135718
22.3629	111.590871
22.3892	106.124808
22.4155	115.1035925
22.4417	112.9041927
22.468	114.676672
22.4943	111.5267394
22.5206	110.7337902
22.5468	116.2513008
22.5731	113.5652661
22.5994	119.5960248
22.6256	115.2548064
22.6519	113.2595
22.6782	111.2592492
22.7045	113.749545
22.7307	123.6095466
22.757	114.01257
22.7833	127.1991639
22.8096	115.7131008
22.8358	112.5119866
22.8621	102.87945
22.8884	120.8736404
22.9146	119.1100908
22.9409	117.8015215
22.9672	118.9011944
22.9935	115.6802985
23.0197	115.328697
23.046	122.443398
23.0723	114.3924634
23.0985	111.6350505
23.1248	110.074048
23.1511	118.1632144
23.1774	113.4765504
23.2036	115.2986884
23.2299	104.766849
23.2562	112.6530328
23.2825	115.20181
23.3087	116.0540173
23.335	120.31526
23.3613	123.3710253
23.3875	123.2755125
23.4138	121.7049324
23.4401	125.4982954
23.4664	109.7523528
23.4926	111.354924
23.5189	116.3715172
23.5452	121.3990512
23.5714	125.9655616
23.5977	122.1652929
23.624	124.26224
23.6503	128.3501781
23.6765	127.0244225
23.7028	114.5556324
23.7291	120.8760354
23.7554	127.447721
23.7816	114.1992432
23.8079	119.277579
23.8342	118.4321398
23.8604	121.5448776
23.8867	126.4084164
23.913	124.299774
23.9393	125.1785997
23.9655	121.3373265
23.9918	124.4694584
24.0181	122.8525815
24.0443	121.9767339
24.0706	128.8739924
24.0969	127.2557289
24.1232	127.1533872
24.1494	124.2728124
24.1757	131.9509706
24.202	122.268504
24.2283	138.0528534
24.2545	130.3679375
24.2808	136.0696032
24.3071	139.765825
24.3333	141.6928059
24.3596	143.6242016
24.3859	163.0928992
24.4122	177.5011062
24.4384	190.1551904
24.4647	187.3017432
24.491	245.424311
24.5172	301.3654224
24.5435	339.780214
24.5698	411.54415
24.5961	514.7225847
24.6223	500.6452259
24.6486	484.2463956
24.6749	408.4189448
24.7012	330.625562
24.7274	285.4036508
24.7537	212.2134701
24.78	189.46788
24.8062	166.3999896
24.8325	163.745505
24.8588	157.7042272
24.8851	152.9438246
24.9113	137.7844003
24.9376	136.6331104
24.9639	143.792064
24.9901	136.9207579
25.0164	138.6408888
25.0427	134.0786158
25.069	136.325222
25.0952	128.6129
25.1215	126.1350515
25.1478	128.882475
25.1741	130.0745747
25.2003	135.1996095
25.2266	136.9047582
25.2529	138.1081101
25.2791	139.03505
25.3054	130.7530018
25.3317	126.911817
25.358	132.87592
25.3842	136.693917
25.4105	135.793712
25.4368	140.4365728
25.463	130.752505
25.4893	132.7482744
25.5156	120.4081164
25.5419	138.6158913
25.5681	135.0251361
25.5944	122.1108824
25.6207	135.3029167
25.647	145.059432
25.6732	137.99345
25.6995	130.913253
25.7258	126.7510166
25.752	133.601376
25.7783	140.4401784
25.8046	136.8159892
25.8309	137.4978807
25.8571	129.2855
25.8834	137.5185042
25.9097	126.0506905
25.9359	141.5581422
25.9622	150.0874782
25.9885	129.682615
26.0148	126.0156912
26.041	139.163104
26.0673	142.2753234
26.0936	146.515564
26.1199	132.7674517
26.1461	142.4439528
26.1724	147.21975
26.1987	130.731513
26.2249	142.6110062
26.2512	135.3511872
26.2775	137.1422725
26.3038	141.382925
26.33	137.12664
26.3563	134.8124745
26.3826	144.840474
26.4088	142.5018848
26.4351	136.8545127
26.4614	139.7426534
26.4877	138.5041833
26.5139	142.7773515
26.5402	145.4137558
26.5665	136.711209
26.5928	134.9052744
26.619	141.692937
26.6453	135.7311582
26.6716	132.5311804
26.6978	154.9006356
26.7241	147.5437561
26.7504	143.7834
26.7767	136.1059661
26.8029	142.6718367
26.8292	140.0215948
26.8555	149.3971465
26.8817	151.7740782
26.908	133.140784
26.9343	139.4388711
26.9606	141.812756
26.9868	143.3808684
27.0131	138.4421375
27.0394	152.367019
27.0657	152.8129422
27.0919	141.6635451
27.1182	140.9604036
27.1445	142.508625
27.1707	148.2976806
27.197	139.656595
27.2233	156.806208
27.2496	150.4450416
27.2758	153.699133
27.3021	159.8264934
27.3284	147.4640464
27.3546	148.7543148
27.3809	149.4449522
27.4072	152.4662536
27.4335	138.8958105
27.4597	139.8797118
27.486	136.000728
27.5123	145.2924563
27.5386	135.9856068
27.5648	149.3185216
27.5911	147.4468384
27.6174	159.6561894
27.6436	143.4149968
27.6699	153.0422169
27.6962	155.791125
27.7225	148.14904
27.7487	154.0607824
27.775	153.04025
27.8013	150.0158148
27.8275	156.8079625
27.8538	143.3356548
27.8801	151.8907848
27.9064	157.5595344
27.9326	157.120875
27.9589	155.2278128
27.9852	150.42045
28.0115	153.1948935
28.0377	174.955248
28.064	157.86
28.0903	157.7270345
28.1165	170.7515045
28.1428	169.7292268
28.1691	165.4934625
28.1954	164.1818142
28.2216	189.3104928
28.2479	177.7357868
28.2742	175.2434916
28.3004	197.2254876
28.3267	208.9094125
28.353	241.595913
28.3793	260.4368361
28.4055	318.368844
28.4318	379.6782572
28.4581	452.3699576
28.4844	522.8026776
28.5106	537.852469
28.5369	545.1689376
28.5632	490.0302592
28.5894	430.6421322
28.6157	331.4556531
28.642	275.077768
28.6683	253.8291282
28.6945	207.1455955
28.7208	189.988092
28.7471	197.9237835
28.7733	183.7175205
28.7996	174.6119748
28.8259	201.493041
28.8522	187.827822
28.8784	187.7096
28.9047	187.591503
28.931	189.555912
28.9573	209.940425
28.9835	202.2758465
29.0098	231.788302
29.0361	267.6838059
29.0623	295.1567188
29.0886	391.7943534
29.1149	473.408274
29.1412	548.5248076
29.1674	650.1996808
29.1937	634.0579703
29.22	582.26694
29.2462	514.2359346
29.2725	393.949305
29.2988	316.4856376
29.3251	253.5448146
29.3513	226.8561977
29.3776	194.332824
29.4039	185.9208597
29.4302	177.1992342
29.4564	177.032964
29.4827	176.8962
29.509	167.522593
29.5352	166.7557392
29.5615	169.3578335
29.5878	160.8984564
29.6141	155.474025
29.6403	179.0866926
29.6666	153.2873222
29.6929	167.3194915
29.7191	171.8061171
29.7454	157.7101108
29.7717	157.8495534
29.798	163.59102
29.8242	171.787392
29.8505	164.476255
29.8768	160.5878
29.9031	164.766081
29.9293	166.4966959
29.9556	166.3134912
29.9819	158.0345949
30.0081	164.1142989
30.0344	155.1877448
30.0607	162.5081442
30.087	164.545803
30.1132	155.5949044
30.1395	165.465855
30.1658	154.599725
30.192	156.002064
30.2183	153.9320202
30.2446	165.0750268
30.2709	170.5765215
30.2971	166.63405
30.3234	154.1338422
30.3497	159.639422
30.376	155.37324
30.4022	178.916947
30.4285	157.863058
30.4548	160.192248
30.481	166.060488
30.5073	168.7358763
30.5336	162.5303528
30.5599	158.8503602
30.5861	156.4479015
30.6124	159.4293792
30.6387	149.6700495
30.665	160.347285
30.6912	155.0519424
30.7175	153.5875
30.7438	146.340488
30.77	181.41992
30.7963	162.3272973
30.8226	161.81865
30.8489	152.9488462
30.8751	160.7975208
30.9014	158.060661
30.9277	158.5044625
30.9539	156.3791028
30.9802	157.4723566
31.0065	150.195486
31.0328	159.353428
31.059	155.60559
31.0853	165.1561989
31.1116	156.5224596
31.1379	155.6895
31.1641	161.9909918
31.1904	167.6484
31.2167	170.7241323
31.2429	167.6181585
31.2692	162.8499936
31.2955	159.419277
31.3218	160.837443
31.348	171.097384
31.3743	153.9223158
31.4006	172.389294
31.4268	164.3307372
31.4531	169.0604125
31.4794	165.9279174
31.5057	162.4433892
31.5319	157.974819
31.5582	165.68055
31.5845	163.860386
31.6108	179.1384036
31.637	178.938872
31.6633	181.0824127
31.6896	171.6625632
31.7158	186.9963568
31.7421	188.8020108
31.7684	200.8715932
31.7947	198.716875
31.8209	205.1811632
31.8472	209.0131736
31.8735	222.1264215
31.8997	240.9065344
31.926	265.400838
31.9523	302.5563287
31.9786	337.4381872
32.0048	416.0624
32.0311	450.7736703
32.0574	578.0269794
32.0837	643.3423524
32.1099	701.4086556
32.1362	733.1231306
32.1625	673.418425
32.1887	623.9779495
32.215	536.927405
32.2413	437.6111649
32.2676	356.2988392
32.2938	300.3969276
32.3201	284.4815202
32.3464	260.8090232
32.3726	243.118226
32.3989	214.3187235
32.4252	256.0293792
32.4515	252.5051215
32.4777	264.5633442
32.504	286.457752
32.5303	289.3895488
32.5566	315.0502182
32.5828	348.8966224
32.6091	328.7975553
32.6354	314.442079
32.6616	279.3220032
32.6879	261.830079
32.7142	224.2231268
32.7405	203.6131695
32.7667	202.7603396
32.793	180.03357
32.8193	170.5947214
32.8455	176.5445625
32.8718	162.9783844
32.8981	168.2737815
32.9244	167.3547252
32.9506	171.2772188
32.9769	161.0921565
33.0032	183.2337664
33.0295	159.6315735
33.0557	174.2365947
33.082	158.859764
33.1083	160.3766052
33.1345	171.901786
33.1608	161.6589
33.1871	174.9292041
33.2134	173.3407346
33.2396	147.1517092
33.2659	155.5846143
33.2922	158.8370862
33.3184	160.3614592
33.3447	164.9895756
33.371	155.742457
33.3973	168.0218163
33.4235	176.5095035
33.4498	157.8496062
33.4761	169.8242553
33.5024	149.3536992
33.5286	154.3656744
33.5549	154.4867596
33.5812	154.977238
33.6074	159.971224
33.6337	167.832163
33.66	164.79936
33.6863	143.166775
33.7125	162.9325125
33.7388	156.04195
33.7651	160.384225
33.7913	149.5940851
33.8176	168.749824
33.8439	159.7093641
33.8702	169.689702
33.8964	160.2960756
33.9227	154.0769034
33.949	159.831892
33.9753	175.8901281
34.0015	162.2211565
34.0278	168.0292764
34.0541	152.5283139
34.0803	161.881425
34.1066	162.347416
34.1329	158.2059915
34.1592	150.1638432
34.1854	179.131496
34.2117	166.7820375
34.238	172.251378
34.2642	169.5392616
34.2905	172.892701
34.3168	173.0253056
34.3431	164.5721352
34.3693	161.8106644
34.3956	159.423606
34.4219	159.9241474
34.4482	158.978443
34.4744	157.6514312
34.5007	161.3597739
34.527	165.073587
34.5532	158.0117836
34.5795	175.4218035
34.6058	150.6736532
34.6321	155.84445
34.6583	149.8278309
34.6846	153.5487242
34.7109	163.8007371
34.7371	158.5053873
34.7634	142.3213596
34.7897	158.3627144
34.816	143.616
34.8422	168.0439306
34.8685	143.100324
34.8948	163.5868224
34.9211	156.4116069
34.9473	159.4645299
34.9736	158.4653816
34.9999	157.149551
35.0261	161.2601644
35.0524	145.3272504
35.0787	144.6996375
35.105	160.886215
35.1312	164.6950656
35.1575	160.4236725
35.1838	154.6679848
35.21	148.90309
35.2363	168.4647503
35.2626	154.273875
35.2889	141.8966669
35.3151	179.8951194
35.3414	155.7142084
35.3677	158.4119283
35.394	156.689238
35.4202	152.0234984
35.4465	165.7832805
35.4728	153.7036424
35.499	167.874771
35.5253	167.2531124
35.5516	159.2356164
35.5779	144.9087867
35.6041	150.2136979
35.6304	164.434296
35.6567	151.540975
35.6829	160.216221
35.7092	148.0503432
35.7355	151.1254295
35.7618	148.2684228
35.788	152.850548
35.8143	138.7804125
35.8406	145.2261112
35.8669	162.9074598
35.8931	160.4062639
35.9194	150.7896412
35.9457	143.7828
35.9719	155.5065237
35.9982	157.852107
36.0245	151.9873655
36.0508	154.3334748
36.077	141.674379
36.1033	153.439025
36.1296	158.428296
36.1558	162.7011
36.1821	155.2935732
36.2084	158.773834
36.2347	171.752478
36.2609	173.0007539
36.2872	161.0425936
36.3135	155.857542
36.3398	158.2234892
36.366	166.301718
36.3923	155.031198
36.4186	157.8017938
36.4448	164.0016
36.4711	154.2362819
36.4974	152.4496398
36.5237	144.1955676
36.5499	162.9394542
36.5762	160.7889752
36.6025	144.140645
36.6287	169.7740245
36.655	153.87769
36.6813	159.7103802
36.7076	156.0073
36.7338	149.6167674
36.7601	156.598026
36.7864	152.111764
36.8127	152.9935812
36.8389	160.3965706
36.8652	159.7369116
36.8915	145.278727
36.9177	149.5905204
36.944	154.315088
36.9703	157.493478
36.9966	164.1909108
37.0228	143.46335
37.0491	167.8694721
37.0754	159.4983708
37.1016	153.8232336
37.1279	142.7196476
37.1542	163.3298632
37.1805	175.8265845
37.2067	159.2818827
37.233	154.368018
37.2593	159.5070633
37.2856	157.3079464
37.3118	147.3069864
37.3381	163.7275685
37.3644	158.7987
37.3906	149.188494
37.4169	172.6789935
37.4432	153.6668928
37.4695	150.252695
37.4957	152.3450291
37.522	148.924818
37.5483	155.6752518
37.5745	172.2039335
37.6008	162.9242664
37.6271	160.291446
37.6534	155.320275
37.6796	151.5096716
37.7059	162.2107818
37.7322	169.417578
37.7585	161.2665535
37.7847	171.9959544
37.811	179.60225
37.8373	171.4408063
37.8635	171.5595185
37.8898	193.0106412
37.9161	182.0731122
37.9424	176.2803904
37.9686	172.8330672
37.9949	184.0472956
38.0212	169.4985096
38.0474	184.6820796
38.0737	196.3079972
38.1	177.8127
38.1263	203.3275579
38.1525	200.300625
38.1788	195.66635
38.2051	179.8696108
38.2314	176.820225
38.2576	188.4951952
38.2839	195.8221485
38.3102	191.167898
38.3364	182.481264
38.3627	203.8210251
38.389	222.732978
38.4153	232.4893956
38.4415	247.0635205
38.4678	282.5075232
38.4941	285.8956807
38.5204	322.223146
38.5466	351.352259
38.5729	357.185054
38.5992	359.4743496
38.6254	332.3329416
38.6517	321.6980991
38.678	298.130024
38.7043	268.1046861
38.7305	246.093597
38.7568	222.8516
38.7831	206.8302723
38.8093	203.360732
38.8356	190.9546452
38.8619	190.2678624
38.8882	187.5577886
38.9144	173.0912512
38.9407	184.1505703
38.967	174.96183
38.9933	179.9540795
39.0195	168.6812985
39.0458	155.792742
39.0721	174.1834218
39.0983	153.9691054
39.1246	163.4234542
39.1509	176.17905
39.1772	171.40025
39.2034	154.7750232
39.2297	172.4537612
39.256	180.342064
39.2822	173.9022994
39.3085	151.9273525
39.3348	164.3014596
39.3611	165.2378978
39.3873	170.2712979
39.4136	168.7296216
39.4399	154.0522494
39.4662	161.5746228
39.4924	169.8963048
39.5187	167.1245823
39.545	166.840355
39.5712	160.3425024
39.5975	165.3987575
39.6238	153.938463
39.6501	154.0406385
39.6763	169.4574773
39.7026	164.6069796
39.7289	163.0474056
39.7551	175.1609706
39.7814	183.591161
39.8077	162.1367621
39.834	158.101146
39.8602	164.024723
39.8865	163.694196
39.9128	173.7803312
39.9391	159.7564
39.9653	174.4485345
39.9916	165.8051736
40.0179	177.5994402
40.0441	168.9460579
40.0704	159.4401216
40.0967	177.1071239
40.123	172.609146
40.1492	155.176658
40.1755	171.5895605
40.2018	170.0134122
40.228	156.728288
40.2543	163.1104236
40.2806	174.9789264
40.3069	164.1700037
40.3331	169.3183538
40.3594	190.8596026
40.3857	186.3800055
40.412	177.20662
40.4382	175.6635408
40.4645	183.789759
40.4908	175.0417284
40.517	184.028214
40.5433	182.850283
40.5696	180.8592768
40.5959	178.0130215
40.6221	183.205671
40.6484	181.2105672
40.6747	180.9210656
40.7009	206.4756657
40.7272	206.6090856
40.7535	207.598329
40.7798	220.0478008
40.806	223.576074
40.8323	232.2541224
40.8586	259.6155444
40.8849	249.1525806
40.9111	282.1229456
40.9374	292.088349
40.9637	279.0856881
40.9899	277.091724
41.0162	273.0038272
41.0425	235.58395
41.0688	246.823488
41.095	244.02211
41.1213	225.3036027
41.1476	235.7346004
41.1738	248.3191878
41.2001	242.4625885
41.2264	258.077264
41.2527	260.4282951
41.2789	262.7401985
41.3052	254.7291684
41.3315	274.689149
41.3578	252.902947
41.384	241.392872
41.4103	226.0174174
41.4366	227.0311314
41.4628	213.7821968
41.4891	198.3593871
41.5154	182.9168524
41.5417	181.7449375
41.5679	197.447525
41.5942	171.992017
41.6205	195.533109
41.6467	177.414942
41.673	197.071617
41.6993	183.3101228
41.7256	179.9625128
41.7518	168.3015058
41.7781	180.6067263
41.8044	177.6687
41.8307	183.8877572
41.8569	183.5425065
41.8832	164.0564944
41.9095	170.6973935
41.9357	172.9847625
41.962	149.510606
41.9883	181.9353039
42.0146	174.1925316
42.0408	180.8595216
42.0671	184.9269716
42.0934	171.0254842
42.1196	176.3968848
42.1459	175.1583604
42.1722	169.5744162
42.1985	167.9078315
42.2247	171.9812031
42.251	184.848125
42.2773	184.9631875
42.3036	192.1429512
42.3298	171.9859774
42.3561	169.847961
42.3824	173.0473392
42.4086	171.4155612
42.4349	169.7396
42.4612	194.1750676
42.4875	165.956175
42.5137	169.629663
42.54	170.5854
42.5663	171.5847553
42.5925	187.23663
42.6188	172.6913776
42.6451	192.7984971
42.6714	189.3756732
42.6976	168.1431488
42.7239	180.6793731
42.7502	191.948398
42.7765	186.7194225
42.8027	164.9616058
42.829	181.123841
42.8553	173.6496756
42.8815	188.935889
42.9078	181.0280082
42.9341	200.8027857
42.9604	172.7437684
42.9866	173.2789846
43.0129	169.3848002
43.0392	185.6280696
43.0654	190.2198718
43.0917	175.9434111
43.118	186.399114
43.1443	183.794718
43.1705	165.947402
43.1968	183.154432
43.2231	197.2270053
43.2494	195.9630314
43.2756	187.5131748
43.3019	212.4391214
43.3282	189.560875
43.3544	199.6036576
43.3807	202.8915339
43.407	226.063656
43.4333	199.0548139
43.4595	220.9046385
43.4858	211.993275
43.5121	211.2077334
43.5383	224.0480918
43.5646	184.713904
43.5909	175.2790089
43.6172	190.389078
43.6434	180.465459
43.6697	181.9716399
43.696	172.511808
43.7223	186.7379433
43.7485	168.169234
43.7748	174.661452
43.8011	177.0440462
43.8273	180.3493395
43.8536	170.371236
43.8799	184.6466192
43.9062	187.5233802
43.9324	168.8761456
43.9587	177.1975197
43.985	176.863685
44.0112	174.1963296
44.0375	167.430575
44.0638	167.0899296
44.0901	167.6305602
44.1163	181.0532952
44.1426	173.8335588
44.1689	176.6756
44.1952	172.6264512
44.2214	198.0676506
44.2477	173.3182409
44.274	181.257756
44.3002	192.8830708
44.3265	172.696044
44.3528	178.7861368
44.3791	184.9277097
44.4053	183.6159155
44.4316	187.9012364
44.4579	200.06055
44.4841	194.1730965
44.5104	177.596496
44.5367	174.8956209
44.563	169.428526
44.5892	178.3568
44.6155	175.695839
44.6418	191.6026056
44.6681	181.4864903
44.6943	179.7157803
44.7206	196.099831
44.7469	172.9467685
44.7731	175.8239637
44.7994	186.6790998
44.8257	184.4577555
44.852	177.075696
44.8782	204.2855664
44.9045	179.168955
44.9308	206.4120952
44.957	176.546139
44.9833	192.1236743
45.0096	165.5002992
45.0359	189.5110672
45.0621	191.513925
45.0884	179.4067436
45.1147	179.5113913
45.141	189.501918
45.1672	185.863028
45.1935	180.322065
45.2198	180.427002
45.246	183.336792
45.2723	191.0038337
45.2986	169.86975
45.3249	186.5119635
45.3511	176.1890235
45.3774	186.2288496
45.4037	180.6613223
45.4299	180.7655721
45.4562	187.506825
45.4825	194.7105825
45.5088	189.6351696
45.535	199.215625
45.5613	182.2452
45.5876	163.3403708
45.6139	188.1573375
45.6401	168.7770898
45.6664	193.625536
45.6927	185.6494401
45.7189	184.7957938
45.7452	189.156402
45.7715	197.4124795
45.7978	188.915925
45.824	195.21024
45.8503	180.0541281
45.8766	171.0738414
45.9028	189.34905
45.9291	178.9397736
45.9554	191.4961518
45.9817	193.0311766
46.0079	195.073496
46.0342	188.9243568
46.0605	191.9341035
46.0868	198.7723684
46.113	197.409753
46.1393	204.7662134
46.1656	174.5521336
46.1918	173.21925
46.2181	171.3767148
46.2444	192.1917264
46.2707	186.5171917
46.2969	200.1414987
46.3232	179.5024
46.3495	195.038696
46.3758	193.7117166
46.402	201.570288
46.4283	173.1311307
46.4546	195.9919574
46.4808	172.3508064
46.5071	192.3068585
46.5334	186.1336
46.5597	184.2832926
46.5859	202.3691496
46.6122	195.2118936
46.6385	179.744779
46.6647	196.3650576
46.691	208.662079
46.7173	209.2467867
46.7436	197.2112484
46.7698	186.0970342
46.7961	202.2995403
46.8224	186.821376
46.8487	195.2185329
46.8749	214.3589177
46.9012	198.861088
46.9275	207.7480425
46.9537	202.9808451
46.98	202.10796
47.0063	198.3195797
47.0326	193.539149
47.0588	197.5528424
47.0851	210.8941629
47.1114	206.583489
47.1376	212.1192
47.1639	190.1176809
47.1902	191.7337826
47.2165	174.606617
47.2427	185.0496559
47.269	196.969923
47.2953	193.6269582
47.3216	174.5220608
47.3478	187.9234182
47.3741	187.5066878
47.4004	210.8369792
47.4266	207.017109
47.4529	184.3545165
47.4792	202.7836632
47.5055	194.962572
47.5317	193.5966141
47.558	196.17675
47.5843	188.3386594
47.6105	215.7231755
47.6368	185.068968
47.6631	205.0466562
47.6894	179.8367274
47.7156	206.2745388
47.7419	187.4824413
47.7682	187.1080394
47.7945	178.2256905
47.8207	172.3458028
47.847	189.904743
47.8733	194.5092179
47.8995	184.604673
47.9258	191.7032
47.9521	177.8063868
47.9784	196.9033536
48.0046	202.5314074
48.0309	187.1283864
48.0572	192.2288
48.0834	206.8547868
48.1097	176.8993669
48.136	191.533144
48.1623	186.6289125
48.1885	180.706875
48.2148	180.8055
48.2411	198.5121265
48.2674	210.1562596
48.2936	201.2394312
48.3199	200.8175044
48.3462	192.901338
48.3724	198.0366056
48.3987	206.7108477
48.425	213.893225
48.4513	194.8226773
48.4775	194.9280275
48.5038	198.0410154
48.5301	194.605701
48.5563	207.8695203
48.5826	196.3708692
48.6089	233.9546357
48.6352	215.3080304
48.6614	196.1541034
48.6877	224.6937355
48.714	226.812384
48.7403	230.0054757
48.7665	211.3052445
48.7928	222.1048256
48.8191	201.3787875
48.8453	211.1582319
48.8716	207.7043
48.8979	201.2148585
48.9242	209.9826664
48.9504	207.549696
48.9767	213.7832955
49.003	206.204624
49.0292	188.4682448
49.0555	202.8444925
49.0818	219.3465642
49.1081	210.2317761
49.1343	224.1998109
49.1606	196.150794
49.1869	191.0911065
49.2132	193.2602364
49.2394	190.802675
49.2657	195.5355633
49.292	217.722764
49.3182	184.450068
49.3445	211.2438045
49.3708	190.2750632
49.3971	189.8824524
49.4233	227.0506402
49.4496	212.7321792
49.4759	182.4671192
49.5021	206.7702717
49.5284	206.3848428
49.5547	215.7611638
49.581	193.167576
49.6072	199.9666232
49.6335	205.780491
49.6598	191.935127
49.6861	193.0304985
49.7123	197.8052417
49.7386	220.7399068
49.7649	216.6763746
49.7911	217.8360625
49.8174	201.8601048
49.8437	180.6834125
49.87	191.15171
49.8962	196.4912356
49.9225	201.2375975
49.9488	211.2334752
49.975	184.80755
50.0013	179.1546579
50.0276	204.2626908
50.0539	193.9588625
50.0801	208.6837767
50.1064	210.3466672
50.1327	201.032127
50.159	222.053893
50.1852	221.6680284
50.2115	216.009873
50.2378	210.3959064
50.264	204.725272
50.2903	214.7898713
50.3166	216.4620132
50.3429	222.8680183
50.3691	228.2223921
50.3954	243.0570142
50.4217	259.9742852
50.4479	245.9335125
50.4742	263.4248498
50.5005	284.5703175
50.5268	284.718518
50.553	289.618137
50.5793	336.1500278
50.6056	316.285
50.6319	304.8546699
50.6581	297.1097565
50.6844	276.1286112
50.7107	261.4643692
50.7369	253.177131
50.7632	234.272168
50.7895	231.7524885
50.8158	232.3806534
50.842	227.721318
50.8683	201.8962827
50.8946	218.4396232
50.9208	204.7525368
50.9471	212.2965657
50.9734	187.4291918
50.9997	194.4618561
51.0259	204.613859
51.0522	206.8635144
51.0785	231.998547
51.1048	198.0311
51.131	177.373439
51.1573	188.1053921
51.1836	219.6800112
51.2098	211.752523
51.2361	215.0891478
51.2624	197.5652896
51.2887	211.0530005
51.3149	207.9279748
51.3412	198.433738
51.3675	191.0357325
51.3937	176.6915406
51.42	204.08598
51.4463	206.8655723
51.4726	195.6988252
51.4988	202.2357876
51.5251	207.6976781
51.5514	199.246161
51.5777	206.3108
51.6039	205.3319181
51.6302	200.583327
51.6565	191.542302
51.6827	188.4351242
51.709	206.836
51.7353	205.8547587
51.7616	211.9119904
51.7878	192.0291624
51.8141	186.7380164
51.8404	204.6658992
51.8666	189.6242896
51.8929	206.4818491
51.9192	202.2772032
51.9455	201.2888125
51.9717	190.5802239
51.998	194.47252
52.0243	196.7038783
52.0506	208.722906
52.0768	205.5992064
52.1031	213.8311224
52.1294	188.969075
52.1556	203.7197736
52.1819	185.3501088
52.2082	203.4031472
52.2345	206.221806
52.2607	203.6076872
52.287	205.331049
52.3133	206.5329084
52.3395	201.193038
52.3658	201.8177932
52.3921	203.0193875
52.4184	197.093184
52.4446	206.5268348
52.4709	206.6304042
52.4972	215.4485088
52.5235	183.83225
52.5497	208.5697593
52.576	194.951808
52.6023	191.7879858
52.6285	203.4091525
52.6548	211.145748
52.6811	195.3415188
52.7074	208.0888152
52.7336	237.828536
52.7599	207.7684862
52.7862	214.9981926
52.8124	201.9018052
52.8387	191.5402875
52.865	213.68033
52.8913	205.4827005
52.9175	210.0295575
52.9438	230.5173052
52.9701	236.1407058
52.9964	216.3843012
53.0226	201.5919252
53.0489	207.2090034
53.0752	212.3008
53.1014	229.0263382
53.1277	235.1963279
53.154	249.185952
53.1803	230.4302399
53.2065	233.895774
53.2328	206.809428
53.2591	225.818584
53.2853	222.5726981
53.3116	208.8215372
53.3379	229.4596458
53.3642	212.3361518
53.3904	217.4590992
53.4167	218.1003861
53.443	199.288947
53.4693	202.7555856
53.4955	217.8871715
53.5218	214.622418
53.5481	203.5898762
53.5743	241.08435
53.6006	220.566469
53.6269	229.5767589
53.6532	220.782918
53.6794	213.5903326
53.7057	216.4876767
53.732	238.462616
53.7583	212.2377684
53.7845	229.12197
53.8108	204.5886616
53.8371	210.8799207
53.8633	223.8558748
53.8896	205.4810448
53.9159	189.244809
53.9422	205.6816086
53.9684	219.2736092
53.9947	202.480125
54.021	195.826125
54.0472	199.3260736
54.0735	212.941443
54.0998	184.8590166
54.1261	192.2559072
54.1523	195.1648892
54.1786	183.394561
54.2049	208.3636356
54.2312	198.8658104
54.2574	198.9618858
54.2837	191.1329077
54.31	182.15574
54.3362	170.9416852
54.3625	191.9539875
54.3888	195.4733472
54.4151	192.7382842
54.4413	183.1949745
54.4676	196.900374
54.4939	207.7852407
54.5201	188.5305058
54.5464	200.5671128
54.5727	194.4425301
54.599	213.263694
54.6252	191.1882
54.6515	190.1325685
54.6778	197.0587912
54.7041	203.4445479
54.7303	193.8547226
54.7566	214.4816022
54.7829	195.1914727
54.8091	204.986034
54.8354	215.3386158
54.8617	221.1475127
54.888	197.267472
54.9142	212.243383
54.9405	211.740687
54.9668	227.8923528
54.993	214.252728
55.0193	248.7422553
55.0456	241.9804576
55.0719	239.2323336
55.0981	260.5589149
55.1244	233.727456
55.1507	224.6288011
55.177	239.688888
55.2032	213.9124
55.2295	239.916948
55.2558	208.9221798
55.282	210.790266
55.3083	205.6915677
55.3346	189.0783282
55.3609	192.0469621
55.3871	211.1910123
55.4134	196.2742628
55.4397	205.0160106
55.4659	206.2776821
55.4922	183.8456586
55.5185	179.87994
55.5448	199.6280112
55.571	193.331509
55.5973	199.2051259
55.6236	197.5750272
55.6499	171.0121427
55.6761	183.2857212
55.7024	196.1281504
55.7287	180.560988
55.7549	188.7303365
55.7812	193.5049828
55.8075	190.6942275
55.8338	215.1834652
55.86	194.33694
55.8863	186.8837872
55.9126	181.156824
55.9388	175.9834648
55.9651	191.7923977
55.9914	180.7962306
56.0177	175.6154895
56.0439	171.0459828
56.0702	204.9926512
56.0965	189.3256875
56.1228	192.3328356
56.149	193.601752
56.1753	181.3900437
56.2016	193.7831168
56.2278	205.0065588
56.2541	185.7510382
56.2804	179.4219152
56.3067	178.3233189
56.3329	191.8698574
56.3592	171.4446864
56.3855	173.8364965
56.4117	189.2048418
56.438	171.063578
56.4643	203.4973372
56.4906	174.7819164
56.5168	181.9275792
56.5431	190.2675315
56.5694	195.6169852
56.5957	192.7649542
56.6219	188.7207927
56.6482	190.621193
56.6745	195.413676
56.7007	176.6226805
56.727	183.79548
56.7533	202.7795409
56.7796	183.965904
56.8058	176.3252032
56.8321	179.3621076
56.8584	188.3718792
56.8846	185.443796
56.9109	183.7652961
56.9372	193.3587312
56.9635	186.3276085
56.9897	186.4133087
57.016	175.780328
57.0423	194.2860738
57.0686	182.5053828
57.0948	200.402748
57.1211	181.4737347
57.1474	187.5006194
57.1736	184.0418184
57.1999	207.3496375
57.2262	178.259613
57.2525	189.047755
57.2787	199.2725973
57.305	193.404375
57.3313	184.5494547
57.3575	188.82089
57.3838	184.7184522
57.4101	183.0233988
57.4364	184.8877716
57.4626	168.8251188
57.4889	189.2534588
57.5152	174.9612384
57.5415	192.418776
57.5677	172.127423
57.594	173.991474
57.6203	185.4797457
57.6465	178.358271
57.6728	177.8052424
57.6991	178.5210154
57.7254	180.969129
57.7516	187.6927
57.7779	191.9959617
57.8042	187.86365
57.8304	180.141696
57.8567	192.8363811
57.883	178.453289
57.9093	192.4326039
57.9355	190.0863755
57.9618	192.0274434
57.9881	193.2743373
58.0144	189.7651024
58.0406	192.2885078
58.0669	183.2591364
58.0932	176.7195144
58.1194	201.6161986
58.1457	175.6581597
58.172	180.565888
58.1983	193.3929509
58.2245	184.3969915
58.2508	192.9849004
58.2771	174.248529
58.3033	173.1024977
58.3296	179.8301568
58.3559	181.7786285
58.3822	195.2300768
58.4084	219.0315
58.4347	180.7969618
58.461	168.075375
58.4873	189.498852
58.5135	175.5405
58.5398	207.9333696
58.5661	193.3852622
58.5923	201.4403274
58.6186	202.7031188
58.6449	199.1580804
58.6712	188.8625928
58.6974	186.4816398
58.7237	203.0665546
58.75	189.70375
58.7762	184.263387
58.8025	186.8155425
58.8288	197.3117952
58.8551	206.581401
58.8813	177.232713
58.9076	183.497174
58.9339	196.4266887
58.9602	198.990675
58.9864	187.3997928
59.0127	175.2087063
59.039	191.87675
59.0652	196.8643116
59.0915	195.7701395
59.1178	190.3001982
59.1441	188.5513908
59.1703	202.1849151
59.1966	203.5179108
59.2229	185.6637915
59.2491	212.2895253
59.2754	203.1367958
59.3017	206.962933
59.328	210.139776
59.3542	225.0711264
59.3805	228.258642
59.4068	246.3005928
59.4331	238.9804951
59.4593	257.0425539
59.4856	242.8797048
59.5119	251.0807061
59.5381	256.7878253
59.5644	251.8978476
59.5907	231.5098695
59.617	238.468
59.6432	242.3303216
59.6695	233.7254315
59.6958	242.5440354
59.722	224.55472
59.7483	229.0152339
59.7746	239.0984
59.8009	218.6320904
59.8271	224.351625
59.8534	268.0833786
59.8797	240.7762737
59.906	239.624
59.9322	244.1038506
59.9585	256.6823385
59.9848	248.037148
60.011	270.64961
60.0373	230.1229709
60.0636	229.0225068
60.0899	237.2349252
60.1161	241.065561
60.1424	230.5258192
60.1687	225.632625
60.1949	232.6532885
60.2212	208.9073428
60.2475	223.39773
60.2738	229.8239994
60.3	189.7038
60.3263	199.1974426
60.3526	198.0168806
60.3789	181.740489
60.4051	207.0082777
60.4314	193.2596172
60.4577	199.6313254
60.4839	195.3025131
60.5102	223.1616176
60.5365	201.7681545
60.5628	206.9430876
60.589	218.362756
60.6153	203.3037162
60.6416	197.691616
60.6678	194.0156244
60.6941	189.0621215
60.7204	195.4589676
60.7467	189.2259705
60.7729	198.119654
60.7992	193.1590584
60.8255	177.4279835
60.8518	194.6040564
60.878	197.8535
60.9043	220.1690445
60.9306	197.415144
60.9568	205.119632
60.9831	178.4975337
61.0094	197.670456
61.0357	211.7328433
61.0619	200.3440939
61.0882	207.4555272
61.1145	220.9289175
61.1407	213.99245
61.167	207.050295
61.1933	214.788483
61.2196	190.699054
61.2458	214.3603
61.2721	218.3124923
61.2984	209.4566328
61.3247	218.4999061
61.3509	214.114641
61.3772	224.3950432
61.4035	213.0087415
61.4297	212.4239026
61.456	204.832848
61.4823	201.7234263
61.5086	216.5717806
61.5348	199.9881
61.5611	213.5554559
61.5874	216.171774
61.6137	192.5428125
61.6399	193.9191254
61.6662	213.2417196
61.6925	199.8837
61.7187	189.0443781
61.745	200.67125
61.7713	197.5446174
61.7976	197.0107488
61.8238	197.7125124
61.8501	210.6614406
61.8764	185.010436
61.9026	201.802476
61.9289	210.3105444
61.9552	186.485152
61.9815	203.3613015
62.0077	200.904948
62.034	201.6105
62.0603	175.1962269
62.0866	169.4343314
62.1128	181.1830376
62.1391	176.0400703
62.1654	202.03755
62.1916	207.9687104
62.2179	181.4896143
62.2442	174.4082484
62.2705	179.6503925
62.2967	195.3001545
62.323	190.895349
62.3493	187.671393
62.3755	195.5471925
62.4018	199.5609564
62.4281	185.9733099
62.4544	206.2244288
62.4806	193.9397824
62.5069	205.0851389
62.5332	217.5530028
62.5595	182.4860615
62.5857	184.5026436
62.612	204.803852
62.6383	217.2922627
62.6645	196.4532075
62.6908	203.118192
62.7171	196.6181085
62.7434	192.8104682
62.7696	196.782696
62.7959	207.3520618
62.8222	196.319375
62.8484	203.628816
62.8747	205.6631437
62.901	205.05726
62.9273	186.1389534
62.9535	186.9089415
62.9798	188.9394
63.0061	181.7725985
63.0324	200.2539348
63.0586	196.427539
63.0849	201.7455102
63.1112	160.4286704
63.1374	182.8459104
63.1637	197.3865625
63.19	176.42648
63.2163	175.8045303
63.2425	205.538125
63.2688	181.265112
63.2951	177.3528702
63.3213	196.5493152
63.3476	195.9974744
63.3739	181.5662235
63.4002	200.0910312
63.4264	188.9472456
63.4527	199.6221942
63.479	191.770059
63.5053	201.7563381
63.5315	179.3494245
63.5578	185.3981026
63.5841	188.0817678
63.6103	182.2435095
63.6366	184.2915936
63.6629	200.9201124
63.6892	160.5604732
63.7154	175.854504
63.7417	191.2251
63.768	208.585128
63.7942	190.0429218
63.8205	208.7568555
63.8468	167.59785
63.8731	191.6193
63.8993	192.336893
63.9256	188.4526688
63.9519	183.8617125
63.9782	197.2447906
64.0044	192.653244
64.0307	182.7436178
64.057	190.185233
64.0832	180.2660416
64.1095	175.66003
64.1358	204.4649304
64.1621	188.5082498
64.1883	175.875942
64.2146	193.285946
64.2409	204.0933393
64.2671	184.7679125
64.2934	198.2165522
64.3197	190.9651893
64.346	208.48104
64.3722	186.4218912
64.3985	183.149334
64.4248	197.3331624
64.4511	189.3573318
64.4773	208.1972017
64.5036	155.9052012
64.5299	187.5238894
64.5561	186.9544656
64.5824	187.0306304
64.6087	198.5425351
64.635	191.19033
64.6612	186.547562
64.6875	185.3296875
64.7138	189.4172926
64.74	194.22
64.7663	201.0345952
64.7926	184.2701544
64.8189	179.6131719
64.8451	169.5699365
64.8714	202.074411
64.8977	177.1058233
64.924	176.528356
64.9502	186.731825
64.9765	196.9437715
65.0028	207.8789544
65.029	201.850016
65.0553	206.6806881
65.0816	174.9393408
65.1079	186.5341335
65.1341	189.9961697
65.1604	208.3829592
65.1867	187.4117625
65.2129	199.0297708
65.2392	212.0274
65.2655	183.5918515
65.2918	189.0850528
65.318	186.417572
65.3443	170.1565572
65.3706	179.115444
65.3969	202.9919776
65.4231	173.7637536
65.4494	180.640344
65.4757	171.2189555
65.5019	184.2568447
65.5282	183.6100164
65.5545	180.274875
65.5808	191.2991936
65.607	185.208561
65.6333	211.9299257
65.6596	179.1850484
65.6858	188.189817
65.7121	195.7563459
65.7384	195.8346936
65.7647	187.6924538
65.7909	187.1093196
65.8172	211.1415776
65.8435	192.0654895
65.8698	206.501823
65.896	213.50304
65.9223	198.426123
65.9486	176.5444022
65.9748	176.6145396
66.0011	195.9572659
66.0274	203.5624742
66.0537	214.674525
66.0799	174.8474154
66.1062	207.9701052
66.1325	163.2811425
66.1587	209.5246029
66.185	189.620025
66.2113	208.9628628
66.2376	195.2684448
66.2638	197.3998602
66.2901	194.0311227
66.3164	216.9209444
66.3427	214.950348
66.3689	188.7531516
66.3952	195.7330496
66.4215	205.508121
66.4477	200.007577
66.474	214.644546
66.5003	219.5839906
66.5266	203.7709758
66.5528	217.6942088
66.5791	217.047866
66.6054	231.0541326
66.6316	224.88165
66.6579	199.9737
66.6842	213.9229136
66.7105	192.4597925
66.7367	221.7660541
66.763	200.289
66.7893	203.1730506
66.8156	217.818856
66.8418	205.4048514
66.8681	175.5287625
66.8944	190.2476736
66.9206	206.3162098
66.9469	216.1715401
66.9732	193.217682
66.9995	194.030552
67.0257	205.9699761
67.052	192.7745
67.0783	213.8456204
67.1045	185.20842
67.1308	189.5102484
67.1571	184.010454
67.1834	211.3589764
67.2096	213.5248992
67.2359	218.516675
67.2622	210.866997
67.2885	203.9514435
67.3147	199.1168826
67.341	242.023554
67.3673	207.6933859
67.3935	188.836587
67.4198	191.7419112
67.4461	188.3095112
67.4724	204.5088444
67.4986	182.7862088
67.5249	194.1340875
67.5512	199.8164496
67.5774	206.9895762
67.6037	178.1357495
67.63	199.37324
67.6563	174.0796599
67.6825	189.646365
67.7088	205.9701696
67.7351	200.3604258
67.7614	196.9146284
67.7876	203.3628
67.8139	202.763561
67.8402	188.6635962
67.8664	190.9081832
67.8927	205.7827737
67.919	180.392864
67.9453	186.170122
67.9715	201.8073835
67.9978	174.9583394
68.0241	181.4202747
68.0503	209.1185719
68.0766	190.7506332
68.1029	207.1690218
68.1292	186.674008
68.1554	193.8339576
68.1817	188.9314907
68.208	187.572
68.2343	199.0394531
68.2605	169.968645
68.2868	188.471568
68.3131	190.7301752
68.3393	195.0403622
68.3656	186.5697224
68.3919	184.5213462
68.4182	192.4603966
68.4444	187.537656
68.4707	206.096807
68.497	199.052282
68.5232	198.4431872
68.5495	201.398431
68.5758	196.469667
68.6021	207.2469441
68.6283	182.2767648
68.6546	221.6857034
68.6809	210.3695967
68.7072	202.5488256
68.7334	229.8444896
68.7597	211.2985581
68.786	212.067238
68.8122	229.3510626
68.8385	210.8523255
68.8648	210.1753696
68.8911	203.0909628
68.9173	225.4284883
68.9436	178.8396984
68.9699	202.6335662
68.9961	208.4372181
69.0224	215.695
69.0487	212.1866551
69.075	187.0551
69.1012	203.0193256
69.1275	195.8382075
69.1538	234.085613
69.1801	200.3455696
69.2063	186.7185974
69.2326	198.351399
69.2589	214.2870366
69.2851	169.6099248
69.3114	192.7550034
69.3377	199.3458875
69.364	192.207644
69.3902	201.6479212
69.4165	189.4376285
69.4428	175.7597268
69.4691	186.7329408
69.4953	188.1932724
69.5216	202.0297696
69.5479	215.8766816
69.5741	189.1719779
69.6004	190.705096
69.6267	205.9557786
69.653	175.595213
69.6792	198.1676448
69.7055	208.419445
69.7318	200.478925
69.758	186.742166
69.7843	188.2780414
69.8106	201.403581
69.8369	187.7215872
69.8631	206.6550498
69.8894	190.0292786
69.9157	206.1114836
69.942	182.89833
69.9682	202.6279072
69.9945	194.6547045
70.0208	192.5572
70.047	182.402388
70.0733	204.4038161
70.0996	181.0672668
70.1259	192.846225
70.1521	194.3914691
70.1784	202.464684
70.2047	207.6655026
70.2309	197.5595217
70.2572	182.2471768
70.2835	168.399266
70.3098	188.2193346
70.336	187.586112
70.3623	170.0656791
70.3886	192.0904894
70.4149	187.0219744
70.4411	208.3647738
70.4674	182.0172942
70.4937	193.152738
70.5199	190.2626902
70.5462	182.2208346
70.5725	171.2794575
70.5988	204.4541248
70.625	181.011875
70.6513	220.0787995
70.6776	203.1981
70.7038	192.2436322
70.7301	181.9885473
70.7564	213.7550844
70.7827	192.4581613
70.8089	198.4065378
70.8352	207.3346304
70.8615	191.892942
70.8878	209.6861124
70.914	169.909944
70.9403	201.7542132
70.9666	184.7970264
70.9928	179.6827768
71.0191	181.2407432
71.0454	182.7998142
71.0717	196.9396807
71.0979	195.519225
71.1242	188.9058752
71.1505	186.7700625
71.1767	212.0353893
71.203	179.502763
71.2293	206.9923458
71.2556	196.665456
71.2818	216.8392356
71.3081	204.2977065
71.3344	216.9992448
71.3607	217.7928564
71.3869	208.2355873
71.4132	214.953732
71.4395	224.748667
71.4657	226.3318719
71.492	257.657168
71.5183	232.434475
71.5446	232.51995
71.5708	231.1021132
71.5971	212.5717899
71.6234	245.4533918
71.6496	226.1261376
71.6759	208.2901654
71.7022	202.4153106
71.7285	209.9493195
71.7547	222.0090418
71.781	198.11556
71.8073	200.4859816
71.8336	232.740864
71.8598	211.8426904
71.8861	202.2155993
71.9124	192.5094948
71.9386	187.3281144
71.9649	185.1656877
71.9912	184.5134456
72.0175	171.0415625
72.0437	177.8758953
72.07	175.70666
72.0963	202.8068919
72.1225	185.5711925
72.1488	187.1539872
72.1751	184.1908552
72.2014	197.831836
72.2276	193.3532852
72.2539	175.3602153
72.2802	176.2191276
72.3065	183.0077515
72.3327	192.1156512
72.359	177.134832
72.3853	184.0034326
72.4115	197.6109835
72.4378	168.2730094
72.4641	196.2327828
72.4904	184.9955008
72.5166	178.2458028
72.5429	191.9485134
72.5692	163.2807
72.5954	195.1364352
72.6217	190.6319625
72.648	178.568784
72.6743	205.8862919
72.7005	182.478255
72.7268	202.2532308
72.7531	200.798556
72.7794	191.045925
72.8056	200.943456
72.8319	190.4554185
72.8582	219.303182
72.8844	201.9626724
72.9107	184.5369817
72.937	182.3425
72.9633	187.0049379
72.9895	173.3500625
73.0158	196.9966284
73.0421	179.5374818
73.0683	193.3387218
73.0946	199.4751634
73.1209	195.0134403
73.1472	181.3319088
73.1734	196.6900992
73.1997	199.7619813
73.226	203.641506
73.2523	202.176348
73.2785	185.4678835
73.3048	175.6383008
73.3311	164.261664
73.3573	182.659677
73.3836	175.8271056
73.4099	167.4479819
73.4362	200.4073898
73.4624	178.2932448
73.4887	190.6296878
73.515	193.712025
73.5412	189.2215076
73.5675	183.183075
73.5938	159.4777646
73.6201	164.0992029
73.6463	178.7395701
73.6726	167.3104746
73.6989	190.3642587
73.7252	192.791398
73.7514	182.8297206
73.7777	192.1171308
73.804	195.285384
73.8302	212.261825
73.8565	171.5686495
73.8828	193.94235
73.9091	210.1974804
73.9353	215.6692701
73.9616	167.153216
73.9879	205.7603499
74.0141	200.4301828
74.0404	180.5104952
74.0667	177.4638132
74.093	204.49668
74.1192	211.5361968
74.1455	173.797052
74.1718	183.1301742
74.1981	181.6369488
74.2243	200.2571614
74.2506	196.4670876
74.2769	176.4076375
74.3031	178.0302276
74.3294	199.7974272
74.3557	194.4401555
74.382	192.946908
74.4082	196.065607
74.4345	189.212499
74.4608	197.0232768
74.487	177.651495
74.5133	169.2197043
74.5396	172.4100948
74.5659	191.8580607
74.5921	167.086304
74.6184	179.5318704
74.6447	194.3747988
74.671	190.560392
74.6972	167.321728
74.7235	187.555985
74.7498	185.3047542
74.776	185.369704
74.8023	192.4663179
74.8286	177.717925
74.8549	183.9933442
74.8811	187.20275
74.9074	213.0366456
74.9337	185.7606423
74.9599	199.9180533
74.9862	187.4655
75.0125	200.8084625
75.0388	186.846612
75.065	182.182755
75.0913	187.72825
75.1176	191.7001152
75.1439	202.7382422
75.1701	212.9568933
75.1964	184.8327512
75.2227	184.8973966
75.2489	182.6290803
75.2752	178.7786
75.3015	197.6664375
75.3278	174.9864794
75.354	178.21221
75.3803	178.2744095
75.4066	188.5165
75.4328	178.398572
75.4591	191.8170322
75.4854	194.9787882
75.5117	213.9246461
75.5379	189.600129
75.5642	184.9811616
75.5905	187.3888495
75.6168	192.9740736
75.643	181.240628
75.6693	182.0603358
75.6956	184.5458728
75.7218	177.4918992
75.7481	173.6146452
75.7744	182.3132064
75.8007	189.50175
75.8269	205.3392452
75.8532	198.356118
75.8795	192.885689
75.9057	173.1409017
75.932	213.596716
75.9583	184.3507941
75.9846	185.2504548
76.0108	197.9321232
76.0371	191.6895291
76.0634	193.3531628
76.0897	187.0284826
76.1159	192.6493429
76.1422	205.4316556
76.1685	189.659565
76.1947	212.7356024
76.221	212.809032
76.2473	183.4510038
76.2736	198.6164544
76.2998	188.3842062
76.3261	192.4180981
76.3524	202.7919744
76.3786	202.0977756
76.4049	216.4550817
76.4312	210.950112
76.4575	209.49355
76.4837	200.0048755
76.51	221.57296
76.5363	201.6731505
76.5626	243.2393802
76.5888	215.4442944
76.6151	194.7555842
76.6414	191.6035
76.6676	206.0825088
76.6939	243.6565203
76.7202	196.6338726
76.7465	222.257864
76.7727	191.93175
76.799	228.784221
76.8253	209.6562437
76.8515	204.117584
76.8778	188.9656324
76.9041	188.2612368
76.9304	197.1726152
76.9566	189.1593228
76.9829	184.4510284
77.0092	192.523
77.0355	202.2181875
77.0617	211.919675
77.088	198.347424
77.1143	165.4872878
77.1405	192.079845
77.1668	188.1326584
77.1931	202.6318875
77.2194	185.0176824
77.2456	206.0140152
77.2719	177.1071948
77.2982	181.1869808
77.3245	192.538005
77.3507	192.603243
77.377	182.996605
77.4033	195.1337193
77.4295	192.799455
77.4558	178.3032516
77.4821	162.2475174
77.5084	176.0215764
77.5346	171.1963968
77.5609	197.9354168
77.5872	188.3041344
77.6134	220.7325096
77.6397	182.7638538
77.666	189.349708
77.6923	210.3907484
77.7185	177.2758985
77.7448	178.1910816
77.7711	199.3273293
77.7974	186.4025704
77.8236	183.1967544
77.8499	187.3068594
77.8762	175.22145
77.9024	178.5523008
77.9287	194.82175
77.955	168.928485
77.9813	190.1184094
78.0075	187.686045
78.0338	182.0528554
78.0601	193.5109879
78.0863	200.9160499
78.1126	195.2815
78.1389	166.8265515
78.1652	175.8717
78.1914	178.3545834
78.2177	189.0521809
78.244	167.05094
78.2703	181.0392039
78.2965	204.7453475
78.3228	164.0079432
78.3491	177.068966
78.3753	187.7872188
78.4016	200.0808832
78.4279	190.3445133
78.4542	213.3169698
78.4804	174.9328116
78.5067	174.2063673
78.533	190.599591
78.5592	170.2377864
78.5855	171.0806335
78.6118	205.569857
78.6381	172.8465438
78.6643	190.9182561
78.6906	184.4507664
78.7169	182.8593587
78.7432	173.0775536
78.7694	189.5191764
78.7957	187.9277445
78.822	203.597226
78.8482	191.3645814
78.8745	207.8343075
78.9008	186.600392
78.9271	185.0051224
78.9533	178.434458
78.9796	176.0455284
79.0059	168.6775965
79.0321	191.8109067
79.0584	195.9857736
79.0847	183.7137581
79.111	180.452191
79.1372	187.159478
79.1635	185.559244
79.1898	178.968948
79.2161	182.3554622
79.2423	170.8463988
79.2686	196.5068594
79.2949	176.7483321
79.3211	171.8888237
79.3474	170.2795204
79.3737	181.0514097
79.4	181.1114
79.4262	202.6956624
79.4525	187.031185
79.4788	179.622088
79.505	176.421595
79.5313	173.1396401
79.5576	188.9493
79.5839	215.5132012
79.6101	192.4176117
79.6364	166.7586216
79.6627	191.6684562
79.689	195.078672
79.7152	178.562048
79.7415	169.4506875
79.7678	174.5319464
79.794	187.037136
79.8203	197.0763207
79.8466	200.414966
79.8729	207.9890316
79.8991	175.6182218
79.9254	195.6573792
79.9517	194.9222446
79.9779	199.144971
80.0042	195.0502396
80.0305	192.553383
80.0568	190.1349
80.083	186.833639
80.1093	196.1075664
80.1356	199.537644
80.1619	191.1861315
80.1881	202.1542001
80.2144	192.9958464
80.2407	161.283807
80.2669	204.8411288
80.2932	195.7548216
80.3195	194.9354265
80.3458	200.061042
80.372	189.195688
80.3983	182.5845393
80.4246	156.6671208
80.4508	198.6330252
80.4771	186.9483033
80.5034	171.069725
80.5297	183.6882457
80.5559	168.6840546
80.5822	173.7352232
80.6085	197.329608
80.6348	192.313998
80.661	181.48725
80.6873	202.525123
80.7136	190.887664
80.7398	164.8706716
80.7661	188.4273113
80.7924	191.88195
80.8187	198.6523646
80.8449	180.2032821
80.8712	177.7548976
80.8975	158.397305
80.9237	179.5696903
80.95	198.1656
80.9763	175.4756421
81.0026	167.1083638
81.0288	166.2710976
81.0551	180.6718179
81.0814	176.5142078
81.1077	179.9779863
81.1339	184.2550869
81.1602	185.1264162
81.1865	181.85776
81.2127	189.4692291
81.239	184.493769
81.2653	182.034272
81.2916	179.4918528
81.3178	187.1935756
81.3441	172.8562125
81.3704	209.3660392
81.3966	181.4330214
81.4229	177.2576533
81.4492	174.7899832
81.4755	193.5043125
81.5017	181.6672893
81.528	185.965368
81.5543	200.4604694
81.5806	203.135694
81.6068	211.6880392
81.6331	209.2256353
81.6594	217.7856198
81.6856	202.4986024
81.7119	182.1358251
81.7382	194.128225
81.7645	175.466617
81.7907	167.0166094
81.817	185.806407
81.8433	188.4032766
81.8695	205.492445
81.8958	192.7827132
81.9221	192.8446234
81.9484	191.1856172
81.9746	209.1991792
82.0009	180.2379782
82.0272	202.5251568
82.0535	187.1640335
82.0797	194.1184905
82.106	195.82281
82.1323	185.618998
82.1585	188.307282
82.1848	191.7371384
82.2111	190.9763853
82.2374	201.3171552
82.2636	185.0931
82.2899	187.7032619
82.3162	207.5191402
82.3424	194.739776
82.3687	207.6514927
82.395	185.38875
82.4213	209.5149446
82.4475	183.7754775
82.4738	197.6072248
82.5001	183.0677219
82.5264	189.1505088
82.5526	171.9570658
82.5789	180.6826332
82.6052	189.3311184
82.6314	191.9527422
82.6577	192.8404141
82.684	195.54766
82.7103	217.1145375
82.7365	202.538952
82.7628	219.8179968
82.7891	181.1425508
82.8153	198.4254588
82.8416	199.3168896
82.8679	192.5021317
82.8942	185.683008
82.9204	195.1946216
82.9467	197.8278795
82.973	185.85952
82.9993	203.1822864
83.0255	183.320304
83.0518	161.7849064
83.0781	218.0800125
83.1043	172.2752139
83.1306	214.7263398
83.1569	173.2158227
83.1832	203.6324736
83.2094	217.592581
83.2357	219.3260695
83.262	202.992756
83.2882	214.3005386
83.3145	185.7080205
83.3408	217.936192
83.3671	215.3372193
83.3933	204.1467984
83.4196	192.0319192
83.4459	198.1840125
83.4722	203.5052236
83.4984	182.6944992
83.5247	200.9604282
83.551	200.188196
83.5772	178.437322
83.6035	187.27184
83.6298	184.6545984
83.6561	217.8404844
83.6823	194.3939829
83.7086	209.2715
83.7349	208.499901
83.7611	202.4505787
83.7874	198.157201
83.8137	208.696113
83.84	178.16
83.8662	195.6598446
83.8925	189.59705
83.9188	199.30715
83.9451	179.2227885
83.9713	185.4086304
83.9976	214.3618752
84.0239	161.9140553
84.0501	176.8414104
84.0764	195.3094772
84.1027	189.231075
84.129	193.664958
84.1552	170.9192112
84.1815	192.0180015
84.2078	203.5302526
84.234	193.906668
84.2603	201.8876788
84.2866	187.8748314
84.3129	192.3177249
84.3391	173.9915633
84.3654	208.2981726
84.3917	196.0419191
84.418	170.608778
84.4442	197.0083186
84.4705	185.666159
84.4968	202.4543328
84.523	191.951733
84.5493	196.4080239
84.5756	185.0514128
84.6019	200.9295125
84.6281	183.3890927
84.6544	184.2926288
84.6807	172.9179894
84.7069	187.0328352
84.7332	188.8703028
84.7595	170.366595
84.7858	211.116642
84.812	184.635724
84.8383	207.6841584
84.8646	191.793996
84.8909	202.4647965
84.9171	192.8467341
84.9434	167.2535546
84.9697	163.7366119
84.9959	189.4558611
85.0222	205.4986574
85.0485	208.198728
85.0748	192.269048
85.101	176.414373
85.1273	184.4708591
85.1536	179.1631744
85.1799	191.654775
85.2061	191.713725
85.2324	182.9087304
85.2587	208.7132976
85.2849	175.9427487
85.3112	167.0393296
85.3375	192.86275
85.3638	192.922188
85.39	188.54112
85.4163	197.5679019
85.4426	194.0401446
85.4688	199.3987104
85.4951	160.3033125
85.5214	209.3563872
85.5477	183.5853642
85.5739	188.9471712
85.6002	198.8492646
85.6265	218.518828
85.6528	186.4661456
85.679	181.211085
85.7053	182.9808155
85.7316	173.2635636
85.7578	158.1373832
85.7841	190.3549179
85.8104	169.8187816
85.8367	179.7420498
85.8629	178.8524207
85.8892	192.391808
85.9155	194.16903
85.9417	202.3067618
85.968	182.682
85.9943	173.7944803
86.0206	206.9655636
86.0468	198.0797336
86.0731	182.9053375
86.0994	199.1479122
86.1257	165.9642239
86.1519	194.703294
86.1782	183.990457
86.2045	208.3562765
86.2307	170.6505553
86.257	175.187967
86.2833	168.0798684
86.3096	161.8305
86.3358	196.0686018
86.3621	191.6374999
86.3884	219.5993128
86.4146	191.7539974
86.4409	182.8225035
86.4672	167.5734336
86.4935	194.610375
86.5197	191.0354976
86.546	205.54675
86.5723	209.2452491
86.5986	183.156039
86.6248	184.943948
86.6511	193.1453019
86.6774	185.056249
86.7036	185.112186
86.7299	186.1223654
86.7562	223.2237026
86.7825	194.3928
86.8087	165.4573822
86.835	188.171445
86.8613	211.7678494
86.8875	180.1177875
86.9138	162.094237
86.9401	183.8783115
86.9664	192.0218112
86.9926	194.863424
87.0189	170.3830062
87.0452	191.3253496
87.0715	208.623314
87.0977	207.7280145
87.124	189.668948
87.1503	206.1104595
87.1765	217.069485
87.2028	203.4441324
87.2291	178.9941132
87.2554	192.6599232
87.2816	185.4734
87.3079	180.9892767
87.3342	175.541742
87.3604	188.3490224
87.3867	188.4057252
87.413	224.039519
87.4393	214.9257994
87.4655	204.0570115
87.4918	195.981632
87.5181	184.1380824
87.5444	187.8702824
87.5706	197.03385
87.5969	197.093025
87.6232	163.417268
87.6494	188.0956124
87.6757	179.9105364
87.702	186.36675
87.7283	202.9155579
87.7545	202.9761585
87.7808	191.0988016
87.8071	179.3020982
87.8333	171.0992684
87.8596	187.580246
87.8859	188.6031414
87.9122	196.923328
87.9384	206.1276096
87.9647	200.6474807
87.991	172.286378
88.0173	183.3400359
88.0435	176.967435
88.0698	187.148325
88.0961	189.9351916
88.1223	199.156398
88.1486	194.6321088
88.1749	191.9567573
88.2012	203.0391624
88.2274	219.686226
88.2537	179.2432647
88.28	191.30276
88.3062	189.5051052
88.3325	196.0098175
88.3588	208.968562
88.3851	214.5106377
88.4113	209.9768375
88.4376	190.6714656
88.4639	184.2703037
88.4902	206.4476366
88.5164	193.6738832
88.5427	214.0077059
88.569	197.420301
88.5952	191.9857984
88.6215	207.728796
88.6478	203.1807576
88.6741	198.629984
88.7003	191.2378468
88.7266	191.2945496
88.7529	223.7460609
88.7791	184.0390743
88.8054	199.81215
88.8317	191.5211452
88.858	201.796518
88.8842	184.2569466
88.9105	201.9157455
88.9368	207.4895544
88.9631	204.7930562
88.9893	221.583357
89.0156	198.4157724
89.0419	206.8443337
89.0681	180.0066301
89.0944	183.8017472
89.1207	216.2959389
89.147	199.68928
89.1732	207.1493436
89.1995	196.060501
89.2258	216.5510166
89.252	212.86602
89.2783	189.7163875
89.3046	223.2615
89.3309	195.4560092
89.3571	207.5765433
89.3834	174.1188632
89.4097	196.5225206
89.436	199.352844
89.4622	207.8206906
89.4885	201.349125
89.5148	221.0120412
89.541	197.706528
89.5673	182.8964266
89.5936	200.689664
89.6199	183.9000348
89.6461	207.3514293
89.6724	175.5785592
89.6987	198.0547296
89.7249	183.2182458
89.7512	205.7097504
89.7775	186.1087575
89.8038	202.956588
89.83	186.21759
89.8563	201.278112
89.8826	211.5836404
89.9089	211.6455506
89.9351	194.8893617
89.9614	190.268361
89.9877	183.7548834
