TwoTheta	Intensity
3.9986	132.7055368
4.0249	128.1246417
4.0512	118.7528256
4.0774	120.4545508
4.1037	116.0157027
4.13	107.98298
4.1563	107.8892354
4.1825	103.4290425
4.2088	100.5734848
4.2351	103.4507877
4.2613	98.7641501
4.2876	100.179774
4.3139	100.0307132
4.3402	97.111975
4.3664	99.837736
4.3927	95.0843842
4.419	92.339424
4.4453	93.2579487
4.4715	94.599054
4.4978	93.891575
4.5241	95.4313654
4.5503	94.2276124
4.5766	97.6326078
4.6029	94.0740702
4.6292	95.3337448
4.6554	98.6851692
4.6817	93.9757641
4.708	93.180736
4.7342	94.5845818
4.7605	92.9297205
4.7868	94.6398228
4.8131	90.3948311
4.8393	92.8564884
4.8656	100.353
4.8919	92.2318826
4.9182	95.7524358
4.9444	93.7903236
4.9707	94.493007
4.997	89.321375
5.0232	93.2456616
5.0495	94.365056
5.0758	92.7906998
5.1021	92.0520882
5.1283	89.3196011
5.1546	96.8652432
5.1809	96.3336546
5.2071	87.4896942
5.2334	92.4009104
5.2597	91.8816993
5.286	92.008116
5.3122	92.6872656
5.3385	93.477135
5.3648	92.6554608
5.3911	89.7402506
5.4173	94.856923
5.4436	91.915186
5.4699	91.9052598
5.4961	93.6645362
5.5224	89.2806408
5.5487	96.0646431
5.575	89.4899
5.6012	89.5015748
5.6275	91.446875
5.6538	96.9965928
5.68	98.45144
5.7063	96.5905401
5.7326	93.928651
5.7589	98.1431738
5.7851	92.0814367
5.8114	95.4638678
5.8377	90.425973
5.864	97.184072
5.8902	97.4356884
5.9165	96.391618
5.9428	93.4148732
5.969	90.281125
5.9953	102.6095595
6.0216	99.9826464
6.0479	98.1513691
6.0741	100.0950939
6.1004	97.9907252
6.1267	103.7066509
6.1529	98.8955617
6.1792	98.7374368
6.2055	106.2071325
6.2318	107.8911534
6.258	98.694918
6.2843	103.5589797
6.3106	101.4302738
6.3369	103.8998124
6.3631	106.0537877
6.3894	108.4217286
6.4157	102.2534266
6.4419	104.0753364
6.4682	105.916775
6.4945	104.587428
6.5208	110.788392
6.547	111.23353
6.5733	112.6334955
6.5996	110.3387124
6.6258	104.4954918
6.6521	110.1055592
6.6784	116.3176928
6.7047	116.3533638
6.7309	110.5011853
6.7572	113.7439476
6.7835	113.270883
6.8098	112.1505962
6.836	114.933668
6.8623	118.7315146
6.8886	113.5172394
6.9148	113.22985
6.9411	116.0482509
6.9674	116.4113192
6.9937	122.38975
7.0199	121.6759267
7.0462	119.855862
7.0725	120.303225
7.0987	121.1961051
7.125	118.153875
7.1513	125.8914852
7.1776	120.7487648
7.2038	124.26555
7.2301	126.52675
7.2564	126.5371032
7.2827	123.5000266
7.3089	124.5582738
7.3352	122.6372088
7.3615	123.614308
7.3877	123.817852
7.414	132.139722
7.4403	125.1681669
7.4666	135.332125
7.4928	131.8283232
7.5191	124.5388533
7.5454	123.0881102
7.5717	128.1661659
7.5979	126.6341993
7.6242	136.358817
7.6505	138.9866335
7.6767	133.0602411
7.703	131.836845
7.7293	130.8338611
7.7556	134.75355
7.7818	135.8546644
7.8081	137.9457027
7.8344	132.2055
7.8606	133.551594
7.8869	134.4085498
7.9132	134.1920456
7.9395	137.369229
7.9657	138.1571008
7.992	136.695168
8.0183	137.0648202
8.0446	136.838646
8.0708	136.3642368
8.0971	145.1567117
8.1234	137.7566172
8.1496	139.9856792
8.1759	139.072059
8.2022	143.1119856
8.2285	139.374333
8.2547	138.6129224
8.281	144.230177
8.3073	140.4432138
8.3335	141.152823
8.3598	146.5556538
8.3861	143.0920243
8.4124	134.7750604
8.4386	146.2662538
8.4649	150.0742121
8.4912	144.0871728
8.5175	144.269415
8.5437	142.5772656
8.57	144.61875
8.5963	140.6784495
8.6225	141.82288
8.6488	136.4867128
8.6751	139.5216333
8.7014	140.1273456
8.7276	140.0081592
8.7539	143.1612806
8.7802	150.448727
8.8064	152.923136
8.8327	144.8209492
8.859	140.636625
8.8853	144.8481606
8.9115	142.584
8.9378	145.149872
8.9641	142.6815797
8.9904	141.5988
9.0166	141.3532382
9.0429	135.1732692
9.0692	143.97355
9.0954	141.1697034
9.1217	144.0498864
9.148	143.797412
9.1743	142.8713739
9.2005	146.637569
9.2268	136.9626192
9.2531	148.2439151
9.2793	143.3466264
9.3056	146.1723648
9.3319	139.5865602
9.3582	146.9986056
9.3844	140.859844
9.4107	141.8474811
9.437	139.19575
9.4633	136.4323961
9.4895	141.754151
9.5158	137.9791
9.5421	138.6562551
9.5683	138.2427984
9.5946	135.0248058
9.6209	139.0989722
9.6472	139.1801544
9.6734	137.4396672
9.6997	141.9551095
9.726	136.572492
9.7522	136.2284818
9.7785	137.915964
9.8048	137.7770496
9.8311	135.6888422
9.8573	137.0756138
9.8836	136.3146112
9.9099	140.3935533
9.9362	133.4133574
9.9624	139.573224
9.9887	127.8753374
10.015	132.5986
10.0412	132.7346228
10.0675	135.6998325
10.0938	130.6945224
10.1201	133.2513567
10.1463	129.466788
10.1726	131.2875756
10.1989	128.7611125
10.2251	125.5744531
10.2514	132.9504066
10.2777	128.1526413
10.304	128.161152
10.3302	126.8651862
10.3565	127.0846115
10.3828	129.785
10.4091	125.013291
10.4353	126.7471538
10.4616	128.1546
10.4879	124.5438125
10.5141	120.1446207
10.5404	122.3108016
10.5667	120.7456809
10.593	127.444383
10.6192	123.1190048
10.6455	118.8782985
10.6718	118.4996672
10.698	120.684138
10.7243	119.8655011
10.7506	117.9233314
10.7769	120.5719572
10.8031	115.5715638
10.8294	113.2538652
10.8557	114.2128197
10.882	119.81082
10.9082	123.6226306
10.9345	113.5547825
10.9608	112.6879848
10.987	120.857
11.0133	114.4942668
11.0396	119.3711948
11.0659	105.3584339
11.0921	106.8723835
11.1184	114.8864272
11.1447	114.4672137
11.1709	107.1736146
11.1972	109.4078412
11.2235	111.763613
11.2498	104.173148
11.276	104.066204
11.3023	106.1964108
11.3286	111.3941238
11.3549	112.2431865
11.3811	114.4028172
11.4074	108.7239294
11.4337	107.1909375
11.4599	114.3583421
11.4862	109.6013204
11.5125	104.5680375
11.5388	107.2185296
11.565	115.76565
11.5913	107.9497769
11.6176	109.2751456
11.6438	113.410612
11.6701	103.6888385
11.6964	104.2967988
11.7227	97.3218554
11.7489	103.2963288
11.7752	103.033
11.8015	98.1058695
11.8278	99.057825
11.854	101.126474
11.8803	97.6441857
11.9066	101.325166
11.9328	100.4383776
11.9591	106.8904358
11.9854	96.8779882
12.0117	104.982258
12.0379	95.9300251
12.0642	91.989525
12.0905	96.3491945
12.1167	104.5065375
12.143	101.952628
12.1693	95.0787409
12.1956	100.9917636
12.2218	97.7744
12.2481	94.0286637
12.2744	97.4341872
12.3007	91.8739283
12.3269	91.0341565
12.3532	88.2759672
12.3795	91.4226075
12.4057	88.7751892
12.432	89.361216
12.4583	95.2561618
12.4846	92.8604548
12.5108	88.6139964
12.5371	94.5548082
12.5634	94.4893314
12.5896	94.296104
12.6159	99.4763715
12.6422	102.9833612
12.6685	89.338262
12.6947	87.9361869
12.721	88.258298
12.7473	93.0807846
12.7736	87.8185
12.7998	95.6017062
12.8261	90.8472663
12.8524	98.3979744
12.8786	87.059336
12.9049	97.3287558
12.9312	86.6131776
12.9575	92.1926125
12.9837	87.9126327
13.01	91.61642
13.0363	91.123737
13.0625	91.4375
13.0888	89.1739944
13.1151	87.7137888
13.1414	92.3971834
13.1676	86.2741152
13.1939	86.3144938
13.2202	85.5214738
13.2465	87.479886
13.2727	79.0787466
13.299	82.560192
13.3253	83.149872
13.3515	92.632707
13.3778	79.9858662
13.4041	92.4346736
13.4304	88.6943616
13.4566	85.3686704
13.4829	91.4275449
13.5092	88.2285852
13.5354	82.768971
13.5617	89.8462625
13.588	88.892696
13.6143	88.356807
13.6405	88.66325
13.6668	90.8295528
13.6931	91.8533148
13.7194	93.6074662
13.7456	82.1849424
13.7719	94.1033927
13.7982	95.2903692
13.8244	94.1856372
13.8507	96.5255283
13.877	96.847583
13.9033	103.1207761
13.9295	100.84958
13.9558	109.3157814
13.9821	118.84785
14.0083	134.9699705
14.0346	160.0786476
14.0609	178.2500293
14.0872	209.1103968
14.1134	240.3653154
14.1397	258.7847894
14.166	252.183132
14.1923	237.721025
14.2185	214.4576355
14.2448	188.601152
14.2711	171.395911
14.2973	148.9349741
14.3236	127.8667772
14.3499	113.6081583
14.3762	111.8612122
14.4024	114.0238008
14.4287	97.9997304
14.455	98.019355
14.4812	90.9564172
14.5075	90.5268
14.5338	87.057462
14.5601	89.1806125
14.5863	90.0995751
14.6126	85.3960344
14.6389	86.7647603
14.6652	83.8702788
14.6914	89.0739582
14.7177	81.5654934
14.744	89.540312
14.7702	81.5462742
14.7965	86.0120545
14.8228	83.526478
14.8491	86.3178183
14.8753	91.1112125
14.9016	86.9210328
14.9279	90.3436508
14.9542	87.855925
14.9804	80.8342384
15.0067	90.0402
15.033	86.755443
15.0592	85.3404864
15.0855	84.539142
15.1118	79.9716456
15.1381	87.6798752
15.1643	88.4533619
15.1906	80.7076578
15.2169	82.7495022
15.2431	81.1390213
15.2694	90.9750852
15.2957	85.3958931
15.322	88.576482
15.3482	83.4635116
15.3745	88.403375
15.4008	88.5546
15.4271	92.2386309
15.4533	90.7881375
15.4796	80.6177568
15.5059	83.1891535
15.5321	84.2927067
15.5584	90.7521472
15.5847	86.3704074
15.611	91.714625
15.6372	87.4744968
15.6635	85.334748
15.6898	87.7687412
15.716	86.438
15.7423	86.425227
15.7686	99.0425766
15.7949	91.6420098
15.8211	96.0815403
15.8474	85.179775
15.8737	84.0036204
15.9	83.9679
15.9262	87.753362
15.9525	85.9042125
15.9788	92.037888
16.005	95.533845
16.0313	91.3463474
16.0576	91.1589952
16.0839	85.6145997
16.1101	88.444449
16.1364	86.73315
16.1627	93.2749417
16.1889	89.7188838
16.2152	94.9237808
16.2415	87.9802055
16.2678	89.635578
16.294	91.311576
16.3203	85.844778
16.3466	93.3063928
16.3729	89.1995592
16.3991	88.6535346
16.4254	95.4808502
16.4517	87.4078821
16.4779	97.3184774
16.5042	93.5293014
16.5305	88.1571565
16.5568	88.4795392
16.583	88.105479
16.6093	91.6999453
16.6356	92.0115036
16.6618	97.3715592
16.6881	90.0489876
16.7144	90.8929072
16.7407	89.6297078
16.7669	93.6096027
16.7932	88.5169572
16.8195	90.5730075
16.8458	95.6336066
16.872	89.101032
16.8983	87.3135161
16.9246	85.8584958
16.9508	95.8737248
16.9771	91.7782026
17.0034	90.1520268
17.0297	103.4213681
17.0559	93.2787171
17.0822	99.4696506
17.1085	86.432142
17.1347	92.6301882
17.161	92.240375
17.1873	101.5081938
17.2136	91.0943712
17.2398	94.0948284
17.2661	91.9074503
17.2924	96.3705452
17.3187	94.1790906
17.3449	97.2008196
17.3712	111.4709904
17.3975	104.9243225
17.4237	94.9243176
17.45	98.15625
17.4763	100.313962
17.5026	99.5547888
17.5288	97.8632904
17.5551	100.2045108
17.5814	96.3284906
17.6076	96.1022808
17.6339	89.8270866
17.6602	103.2062088
17.6865	96.356052
17.7127	101.2989313
17.739	95.897034
17.7653	89.7502956
17.7916	89.5095396
17.8178	97.9979
17.8441	96.0904785
17.8704	90.4778352
17.8966	96.015259
17.9229	101.7483033
17.9492	96.656442
17.9755	91.9446825
18.0017	93.1948009
18.028	93.529264
18.0543	94.604532
18.0805	92.8433675
18.1068	99.5874
18.1331	104.8274511
18.1594	99.4953526
18.1856	95.8562976
18.2119	102.8243874
18.2382	107.5324272
18.2645	98.9387965
18.2907	100.415943
18.317	99.223189
18.3433	101.4567923
18.3695	108.6923315
18.3958	94.8487448
18.4221	102.8505843
18.4484	98.0163492
18.4746	107.9655624
18.5009	100.0158654
18.5272	101.5105288
18.5534	103.0084768
18.5797	99.4757138
18.606	109.31025
18.6323	103.2602066
18.6585	99.711024
18.6848	106.6528384
18.7111	116.944375
18.7374	105.397875
18.7636	108.4723716
18.7899	107.6473371
18.8162	110.545175
18.8424	105.5928096
18.8687	107.5138526
18.895	110.025585
18.9213	114.9090549
18.9475	106.3902125
18.9738	100.9975374
19.0001	103.1135427
19.0263	109.8007773
19.0526	102.217199
19.0789	105.7352638
19.1052	105.4798092
19.1314	110.4073094
19.1577	107.9536395
19.184	106.912432
19.2103	97.0504356
19.2365	108.801644
19.2628	107.5442124
19.2891	104.4890547
19.3153	106.6397713
19.3416	103.9611
19.3679	102.6886058
19.3942	104.049883
19.4204	101.5492716
19.4467	104.5260125
19.473	103.245846
19.4992	104.613208
19.5255	97.432245
19.5518	106.5182064
19.5781	110.5379526
19.6043	105.7848028
19.6306	112.2674014
19.6569	108.9385398
19.6832	113.375232
19.7094	110.2543836
19.7357	113.677632
19.762	111.35887
19.7882	109.8640864
19.8145	120.3334585
19.8408	113.4695352
19.8671	118.1695108
19.8933	106.0909689
19.9196	111.4302424
19.9459	119.874859
19.9721	107.9691726
19.9984	101.2518992
20.0247	120.348447
20.051	120.10549
20.0772	121.7280636
20.1035	127.1144305
20.1298	128.7502008
20.1561	132.9093234
20.1823	139.3789638
20.2086	145.0371222
20.2349	148.1801727
20.2611	157.023525
20.2874	159.1343656
20.3137	182.8233
20.34	175.4325
20.3662	159.7524728
20.3925	149.76252
20.4188	149.0980776
20.445	138.2082
20.4713	142.0298794
20.4976	137.0879488
20.5239	128.069136
20.5501	129.5067302
20.5764	129.8988132
20.6027	119.3308384
20.629	125.713126
20.6552	118.3336408
20.6815	121.938124
20.7078	110.6624832
20.734	120.526742
20.7603	120.0152943
20.7866	108.2566128
20.8129	113.5968082
20.8391	113.7398078
20.8654	119.0997032
20.8917	130.364208
20.9179	117.0147326
20.9442	121.5182484
20.9705	121.0207555
20.9968	115.692368
21.023	123.299895
21.0493	119.2863831
21.0756	111.9746628
21.1019	125.5141012
21.1281	123.6838974
21.1544	113.916444
21.1807	114.2910572
21.2069	119.2888125
21.2332	112.3660944
21.2595	124.8995625
21.2858	125.5010768
21.312	110.566656
21.3383	124.2529209
21.3646	125.9656816
21.3908	122.5478932
21.4171	117.79405
21.4434	120.1688136
21.4697	129.9346244
21.4959	119.3452368
21.5222	130.0371324
21.5485	134.46264
21.5748	120.9051792
21.601	114.982123
21.6273	124.140702
21.6536	120.6755128
21.6798	129.1682484
21.7061	132.9498625
21.7324	119.745524
21.7587	128.2892952
21.7849	132.9750296
21.8112	129.0568704
21.8375	128.5136875
21.8637	130.0452876
21.89	121.31438
21.9163	122.8189452
21.9426	125.0289348
21.9688	121.5094328
21.9951	129.4411635
22.0214	128.0103982
22.0477	129.0672358
22.0739	119.3315034
22.1002	135.584727
22.1265	130.9225005
22.1527	128.0647587
22.179	124.291116
22.2053	123.7501369
22.2316	132.7004204
22.2578	121.2604944
22.2841	123.2533571
22.3104	127.1246592
22.3366	129.8426558
22.3629	119.2613457
22.3892	127.7975536
22.4155	128.889125
22.4417	129.264192
22.468	142.536992
22.4943	144.5708661
22.5206	132.7814576
22.5468	119.3176656
22.5731	133.7907637
22.5994	123.1215312
22.6256	127.7441376
22.6519	129.0705262
22.6782	129.4471656
22.7045	135.273411
22.7307	131.4061767
22.757	127.530228
22.7833	142.395625
22.8096	130.4481024
22.8358	133.6807732
22.8621	133.1260083
22.8884	107.7585872
22.9146	140.351925
22.9409	132.8736928
22.9672	130.8671056
22.9935	128.3727105
23.0197	128.7722018
23.046	132.030534
23.0723	143.7173567
23.0985	128.7279405
23.1248	138.7488
23.1511	140.3651193
23.1774	130.141101
23.2036	120.6123128
23.2299	129.4602327
23.2562	136.1417948
23.2825	132.1747525
23.3087	139.1296303
23.335	136.859775
23.3613	127.9965627
23.3875	139.342725
23.4138	142.1920074
23.4401	137.7105875
23.4664	133.4768832
23.4926	134.3541794
23.5189	136.4566578
23.5452	137.1036996
23.5714	134.3098372
23.5977	136.9138554
23.624	127.21524
23.6503	144.1249282
23.6765	144.284591
23.7028	133.8260088
23.7291	135.7067229
23.7554	139.562975
23.7816	147.8977704
23.8079	140.1094915
23.8342	150.7036466
23.8604	138.9391092
23.8867	147.3092789
23.913	138.504096
23.9393	142.3909564
23.9655	134.302662
23.9918	164.703707
24.0181	139.6172153
24.0443	154.0277858
24.0706	153.9555576
24.0969	143.8343961
24.1232	142.9782064
24.1494	139.8733248
24.1757	137.5113816
24.202	145.45402
24.2283	148.6406205
24.2545	153.870548
24.2808	166.4206032
24.3071	144.8217018
24.3333	164.7607743
24.3596	146.9127476
24.3859	151.8997711
24.4122	145.7164218
24.4384	162.148784
24.4647	164.1092076
24.491	176.800529
24.5172	187.4585112
24.5435	203.760137
24.5698	228.0323138
24.5961	235.4584653
24.6223	274.4401558
24.6486	278.5784772
24.6749	272.1888219
24.7012	280.729138
24.7274	270.9628492
24.7537	231.8184005
24.78	218.11356
24.8062	197.1596776
24.8325	187.8081975
24.8588	172.9675304
24.8851	167.974425
24.9113	153.8771001
24.9376	169.3761792
24.9639	166.4343213
24.9901	166.0842046
25.0164	157.6533528
25.0427	165.1315638
25.069	144.14675
25.0952	149.2662496
25.1215	154.396739
25.1478	142.5125826
25.1741	145.8083872
25.2003	163.2727437
25.2266	152.6713832
25.2529	148.1082585
25.2791	148.2619215
25.3054	147.3533442
25.3317	164.909367
25.358	133.38308
25.3842	146.212992
25.4105	147.177616
25.4368	144.6845184
25.463	155.171522
25.4893	153.190693
25.5156	165.596244
25.5419	145.2823272
25.5681	156.3489315
25.5944	155.6907352
25.6207	155.8507181
25.647	143.725788
25.6732	140.1243256
25.6995	152.0639415
25.7258	145.7881086
25.752	148.074
25.7783	150.6483852
25.8046	147.2926568
25.8309	155.7861579
25.8571	158.1161665
25.8834	152.6085264
25.9097	153.3076949
25.9359	162.358734
25.9622	159.278097
25.9885	152.6824375
26.0148	166.104498
26.041	163.563521
26.0673	168.3426234
26.0936	153.038964
26.1199	153.7156115
26.1461	163.413125
26.1724	148.3189908
26.1987	149.8303653
26.2249	158.7130948
26.2512	156.4046496
26.2775	153.828485
26.3038	163.2939904
26.33	165.37873
26.3563	162.5393021
26.3826	165.155076
26.4088	168.3561
26.4351	154.1959383
26.4614	159.3240894
26.4877	160.3035604
26.5139	159.0834
26.5402	158.4184538
26.5665	151.9338135
26.5928	164.8221744
26.619	171.905502
26.6453	167.9186806
26.6716	175.5791428
26.6978	155.1943114
26.7241	164.8075247
26.7504	159.6731376
26.7767	165.3996759
26.8029	153.848646
26.8292	159.8483736
26.8555	161.133
26.8817	153.4407436
26.908	163.977352
26.9343	163.0063836
26.9606	153.3518928
26.9868	159.1141728
27.0131	158.7019625
27.0394	165.0484976
27.0657	166.9141719
27.0919	162.280481
27.1182	159.590607
27.1445	167.6715765
27.1707	164.7359541
27.197	156.953887
27.2233	165.5993339
27.2496	164.3423376
27.2758	159.972567
27.3021	149.888529
27.3284	172.5241892
27.3546	170.1182574
27.3809	161.4377864
27.4072	170.7194488
27.4335	174.8885625
27.4597	179.0647037
27.486	168.07689
27.5123	167.3573209
27.5386	173.8511818
27.5648	161.667552
27.5911	171.0096378
27.6174	172.0287846
27.6436	179.959836
27.6699	174.6800787
27.6962	168.7806428
27.7225	157.962805
27.7487	163.6063352
27.775	168.677575
27.8013	163.6106505
27.8275	168.133755
27.8538	169.7410572
27.8801	179.4920838
27.9064	173.5499016
27.9326	171.9530856
27.9589	183.7738497
27.9852	175.7750412
28.0115	158.152929
28.0377	169.4037834
28.064	171.022016
28.0903	178.2048632
28.1165	183.938143
28.1428	187.6280476
28.1691	169.0146
28.1954	171.2306642
28.2216	196.9585464
28.2479	195.6732033
28.2742	184.9698164
28.3004	195.4425624
28.3267	180.8659795
28.353	202.298655
28.3793	225.2748834
28.4055	226.3634295
28.4318	250.2567036
28.4581	253.1632576
28.4844	286.3251888
28.5106	312.1340488
28.5369	319.2708372
28.5632	328.191168
28.5894	324.0036702
28.6157	305.5298289
28.642	292.091116
28.6683	270.5714154
28.6945	260.947783
28.7208	226.463508
28.7471	240.7569625
28.7733	212.4908205
28.7996	216.284996
28.8259	219.5092285
28.8522	219.3921288
28.8784	202.1488
28.9047	207.4490319
28.931	193.172287
28.9573	206.0311895
28.9835	211.637517
29.0098	201.8501884
29.0361	213.8508765
29.0623	222.5009688
29.0886	258.161325
29.1149	274.7864262
29.1412	302.9519152
29.1674	343.9419808
29.1937	382.8753755
29.22	411.82668
29.2462	393.3028976
29.2725	401.5894275
29.2988	359.203288
29.3251	312.1950146
29.3513	277.6045954
29.3776	258.9047888
29.4039	256.3726041
29.4302	236.3539362
29.4564	201.2755812
29.4827	221.12025
29.509	215.179628
29.5352	198.7423608
29.5615	206.9305
29.5878	186.7877814
29.6141	187.8718504
29.6403	171.3505743
29.6666	176.7536028
29.6929	191.4598192
29.7191	186.3684761
29.7454	196.4386216
29.7717	181.1012511
29.798	179.711738
29.8242	168.6856752
29.8505	196.5058415
29.8768	185.1764064
29.9031	185.0403828
29.9293	190.7992875
29.9556	175.98915
29.9819	174.2847847
30.0081	182.8693614
30.0344	171.1360112
30.0607	189.7731991
30.087	180.82287
30.1132	192.272782
30.1395	183.0371835
30.1658	186.3341466
30.192	186.828096
30.2183	194.8475984
30.2446	176.7494424
30.2709	181.6254
30.2971	179.5709117
30.3234	181.0003746
30.3497	184.9510718
30.376	163.57476
30.4022	186.8519212
30.4285	192.7036905
30.4548	189.0633984
30.481	170.510714
30.5073	185.9114862
30.5336	170.4690888
30.5599	171.5938385
30.5861	182.5684309
30.6124	184.6233844
30.6387	185.7624381
30.665	166.75627
30.6912	205.5696576
30.7175	189.09693
30.7438	188.9513948
30.77	195.85105
30.7963	177.7254473
30.8226	199.0523508
30.8489	194.1012788
30.8751	176.5746969
30.9014	177.0341206
30.9277	182.0095145
30.9539	198.9407153
30.9802	196.8481908
31.0065	204.766926
31.0328	180.3936664
31.059	176.663592
31.0853	171.6219413
31.1116	176.9627808
31.1379	195.9196668
31.1641	182.7774465
31.1904	182.2766976
31.2167	197.0710271
31.2429	188.7696018
31.2692	179.7979
31.2955	195.596875
31.3218	181.4158656
31.348	199.185192
31.3743	170.9271864
31.4006	186.7707688
31.4268	193.8090756
31.4531	185.7620086
31.4794	183.6193402
31.5057	186.7342839
31.5319	179.9840852
31.5582	195.9133056
31.5845	183.9165435
31.6108	185.397342
31.637	193.112248
31.6633	187.6683791
31.6896	189.1552224
31.7158	187.9795466
31.7421	196.4201148
31.7684	197.8853636
31.7947	202.0235238
31.8209	205.1811632
31.8472	203.0259
31.8735	218.460969
31.8997	217.3326561
31.926	236.124696
31.9523	252.2953608
31.9786	246.8428134
32.0048	269.3844016
32.0311	286.6142828
32.0574	306.5649162
32.0837	341.5630702
32.1099	348.8740635
32.1362	401.7025
32.1625	382.2513125
32.1887	417.7771373
32.215	420.47018
32.2413	391.6028298
32.2676	348.2319392
32.2938	327.297663
32.3201	308.7215952
32.3464	290.1148616
32.3726	275.8469246
32.3989	258.1868341
32.4252	262.7738208
32.4515	246.0797245
32.4777	243.907527
32.504	229.575752
32.5303	238.5446899
32.5566	271.9778364
32.5828	272.1967112
32.6091	273.1012125
32.6354	265.8479684
32.6616	258.5818872
32.6879	248.9183585
32.7142	241.267225
32.7405	245.55375
32.7667	225.5987295
32.793	231.256236
32.8193	220.1518644
32.8455	202.5581985
32.8718	199.6304414
32.8981	201.5008625
32.9244	202.3533624
32.9506	202.151931
32.9769	194.4318024
33.0032	207.2930992
33.0295	201.9753925
33.0557	165.2785
33.082	182.28182
33.1083	189.6774507
33.1345	180.848101
33.1608	187.5574848
33.1871	174.232275
33.2134	196.5236878
33.2396	189.3992408
33.2659	192.6760928
33.2922	177.9135168
33.3184	166.925184
33.3447	185.4965661
33.371	185.275792
33.3973	179.5104875
33.4235	183.82925
33.4498	181.5320646
33.4761	176.4525231
33.5024	206.9443248
33.5286	175.3210494
33.5549	183.5117481
33.5812	178.4169156
33.6074	174.6912652
33.6337	191.9811596
33.66	177.75846
33.6863	188.7780252
33.7125	178.40655
33.7388	183.8089824
33.7651	168.1164329
33.7913	182.6757678
33.8176	183.9001088
33.8439	181.9109625
33.8702	181.0023488
33.8964	174.7698384
33.9227	178.8065517
33.949	181.423456
33.9753	189.6840999
34.0015	190.544406
34.0278	176.5362264
34.0541	180.2142972
34.0803	173.9458512
34.1066	180.4921272
34.1329	178.1396051
34.1592	178.6184568
34.1854	189.0794474
34.2117	176.0534082
34.238	192.93113
34.2642	182.0456946
34.2905	183.591337
34.3168	185.5166208
34.3431	195.6869838
34.3693	194.7708231
34.3956	177.7220652
34.4219	185.0177125
34.4482	170.4496936
34.4744	184.2311936
34.5007	203.0366195
34.527	175.880538
34.5532	186.7945992
34.5795	180.8162055
34.6058	179.8809484
34.6321	198.4073009
34.6583	189.5462427
34.6846	187.8864782
34.7109	173.5545
34.7371	188.5182417
34.7634	173.469366
34.7897	178.2972125
34.816	182.43584
34.8422	183.6532362
34.8685	172.878023
34.8948	181.0342224
34.9211	190.5993638
34.9473	179.8388058
34.9736	176.3368912
34.9999	170.6245125
35.0261	160.1743553
35.0524	182.2023752
35.0787	174.6568473
35.105	183.564045
35.1312	173.8291776
35.1575	184.92845
35.1838	177.0096978
35.21	184.8525
35.2363	159.6556753
35.2626	183.6476208
35.2889	173.8684103
35.3151	170.3247273
35.3414	173.0314944
35.3677	186.7768237
35.394	153.751536
35.4202	189.6397508
35.4465	187.582878
35.4728	177.718728
35.499	184.523802
35.5253	176.5252157
35.5516	161.8308832
35.5779	171.5922117
35.6041	184.7140708
35.6304	177.4037616
35.6567	187.554242
35.6829	193.2942693
35.7092	169.6187
35.7355	174.961008
35.7618	178.0580022
35.788	182.661952
35.8143	175.7049558
35.8406	179.203
35.8669	179.693169
35.8931	177.2401278
35.9194	163.1459148
35.9457	175.2352875
35.9719	164.8592177
35.9982	194.2462872
36.0245	186.4988365
36.0508	173.1159416
36.077	176.236145
36.1033	186.9067841
36.1296	177.6492432
36.1558	175.897967
36.1821	178.6672098
36.2084	171.2295236
36.2347	179.6516426
36.2609	174.8863207
36.2872	182.1980312
36.3135	187.9949895
36.3398	171.0877784
36.366	166.301718
36.3923	173.227348
36.4186	183.2219766
36.4448	170.0878816
36.4711	175.1342222
36.4974	179.0562444
36.5237	183.3854977
36.5499	185.4176427
36.5762	190.8911878
36.6025	171.958545
36.6287	189.6267799
36.655	174.881005
36.6813	191.8065177
36.7076	185.0797192
36.7338	186.3505674
36.7601	187.2559494
36.7864	182.3869712
36.8127	183.695373
36.8389	182.2788772
36.8652	173.1927096
36.8915	181.3955055
36.9177	201.9029013
36.944	193.180176
36.9703	193.724372
36.9966	186.5368572
37.0228	175.8583
37.0491	188.7281154
37.0754	188.8620876
37.1016	201.3503832
37.1279	171.3452585
37.1542	183.0587434
37.1805	196.759206
37.2067	170.5183061
37.233	187.728786
37.2593	165.7293664
37.2856	187.9939952
37.3118	185.7754522
37.3381	176.5718749
37.3644	176.6962476
37.3906	177.231444
37.4169	182.7815565
37.4432	180.2141216
37.4695	178.35482
37.4957	166.7808736
37.522	175.490394
37.5483	187.7415
37.5745	185.1295615
37.6008	186.8383752
37.6271	169.698221
37.6534	166.6916018
37.6796	179.354896
37.7059	193.6197965
37.7322	181.6050786
37.7585	193.8898975
37.7847	185.3717382
37.811	181.568422
37.8373	189.564873
37.8635	171.1808835
37.8898	183.9170892
37.9161	183.6655884
37.9424	196.0483808
37.9686	182.7428718
37.9949	195.9017044
38.0212	185.35335
38.0474	208.880226
38.0737	202.2855681
38.1	184.1373
38.1263	189.4495847
38.1525	209.457225
38.1788	203.6075404
38.2051	189.0388348
38.2314	209.0875266
38.2576	191.670576
38.2839	201.7944369
38.3102	206.300427
38.3364	208.0516428
38.3627	201.404175
38.389	219.546691
38.4153	201.296172
38.4415	221.038625
38.4678	220.805172
38.4941	240.973066
38.5204	240.367296
38.5466	243.7301518
38.5729	279.653525
38.5992	254.5231248
38.6254	262.7299708
38.6517	277.0167339
38.678	259.877482
38.7043	251.57795
38.7305	249.346959
38.7568	236.1839392
38.7831	250.8878739
38.8093	224.3565633
38.8356	202.6829964
38.8619	208.4940935
38.8882	218.357243
38.9144	222.1233952
38.9407	215.3810117
38.967	194.016693
38.9933	215.2820093
39.0195	179.645778
39.0458	196.8689236
39.0721	180.3177415
39.0983	184.0747964
39.1246	173.2046042
39.1509	194.9323311
39.1772	171.008478
39.2034	208.6796982
39.2297	191.2447875
39.256	167.662376
39.2822	187.4153762
39.3085	176.0627715
39.3348	178.6586616
39.3611	171.8112015
39.3873	188.3106813
39.4136	192.9689856
39.4399	184.4604123
39.4662	194.4499674
39.4924	198.2913404
39.5187	176.6090703
39.545	179.178395
39.5712	184.6787904
39.5975	173.6350375
39.6238	180.3675376
39.6501	173.8656885
39.6763	197.984737
39.7026	190.6518852
39.7289	188.712275
39.7551	198.7755
39.7814	206.3859032
39.8077	193.6644605
39.834	183.395736
39.8602	183.1177588
39.8865	198.1960185
39.9128	193.7367312
39.9391	189.311334
39.9653	181.0827743
39.9916	204.557034
40.0179	183.8422326
40.0441	187.7267408
40.0704	198.6690432
40.0967	190.459325
40.123	185.568875
40.1492	198.2567496
40.1755	197.5429335
40.2018	180.0638622
40.228	175.152712
40.2543	189.9600417
40.2806	208.5326662
40.3069	189.7648852
40.3331	195.7768674
40.3594	202.200594
40.3857	180.0394506
40.412	193.209772
40.4382	188.2802592
40.4645	184.6395135
40.4908	194.8822204
40.517	189.498009
40.5433	182.039417
40.5696	205.8095808
40.5959	195.3880667
40.6221	192.548754
40.6484	184.6250328
40.6747	196.5808251
40.7009	186.5322247
40.7272	196.4272856
40.7535	188.0774025
40.7798	211.1170246
40.806	222.311088
40.8323	215.6353763
40.8586	225.5803306
40.8849	231.2449944
40.9111	204.5555
40.9374	231.5419344
40.9637	249.1821871
40.9899	232.6996623
41.0162	235.432988
41.0425	228.7298525
41.0688	219.0199104
41.095	249.980885
41.1213	226.16715
41.1476	210.0173504
41.1738	223.9031244
41.2001	246.788599
41.2264	215.5728456
41.2527	243.2259192
41.2789	220.5944416
41.3052	235.7700816
41.3315	231.208411
41.3578	239.0894418
41.384	227.19816
41.4103	219.5574106
41.4366	225.7465968
41.4628	226.7600532
41.4891	225.1613457
41.5154	227.0477226
41.5417	213.7735882
41.5679	213.0354875
41.5942	213.170275
41.6205	211.5570015
41.6467	204.7768239
41.673	210.531996
41.6993	198.071675
41.7256	214.7199376
41.7518	187.8831
41.7781	201.4957763
41.8044	199.4487924
41.8307	186.0629536
41.8569	202.7548236
41.8832	202.8822208
41.9095	183.7731575
41.9357	195.7139119
41.962	205.445952
41.9883	193.3141332
42.0146	193.4352184
42.0408	204.528492
42.0671	199.818725
42.0934	205.205325
42.1196	201.3738076
42.1459	195.8098514
42.1722	186.6963294
42.1985	197.3623845
42.2247	199.6806063
42.251	201.579521
42.2773	218.4468091
42.3036	203.6072268
42.3298	214.3157774
42.3561	202.0809531
42.3824	208.8180848
42.4086	196.563861
42.4349	202.8812569
42.4612	193.2833824
42.4875	188.559525
42.5137	185.9974375
42.54	215.38002
42.5663	174.6920952
42.5925	206.743995
42.6188	194.4695844
42.6451	199.4511327
42.6714	204.9080628
42.6976	208.1508
42.7239	180.6793731
42.7502	195.4966646
42.7765	198.739619
42.8027	186.3629558
42.829	194.957608
42.8553	205.3625976
42.8815	181.3458635
42.9078	191.2829724
42.9341	197.2392554
42.9604	204.9640684
42.9866	194.3424186
43.0129	214.1612291
43.0392	207.1476696
43.0654	200.0818484
43.0917	186.2854191
43.118	207.052636
43.1443	210.3284625
43.1705	217.665661
43.1968	208.3381664
43.2231	187.2856923
43.2494	198.2120002
43.2756	202.3999812
43.3019	198.4526077
43.3282	208.0620164
43.3544	205.9334
43.3807	220.0702911
43.407	227.45268
43.4333	221.6835632
43.4595	219.557394
43.4858	212.9064768
43.5121	204.4198458
43.5383	198.1863416
43.5646	213.7279276
43.5909	212.9415465
43.6172	205.3497776
43.6434	213.6780864
43.6697	215.1606119
43.696	216.207808
43.7223	218.6115
43.7485	203.693016
43.7748	204.7347396
43.8011	177.0440462
43.8273	197.22285
43.8536	189.5791128
43.8799	207.0692481
43.9062	187.040412
43.9324	206.3944152
43.9587	229.4204553
43.985	200.21972
44.0112	204.9161472
44.0375	216.9727625
44.0638	202.4290972
44.0901	203.9167125
44.1163	193.9352548
44.1426	192.1968804
44.1689	201.0568328
44.1952	210.8552992
44.2214	201.2958128
44.2477	207.4332176
44.274	210.3015
44.3002	201.6545104
44.3265	204.079206
44.3528	206.9945176
44.3791	205.2533375
44.4053	211.8576863
44.4316	201.3195796
44.4579	221.3558841
44.4841	212.2336411
44.5104	206.305704
44.5367	201.7957877
44.563	214.481719
44.5892	184.8668232
44.6155	206.7928425
44.6418	210.1735944
44.6681	222.893819
44.6943	215.5606089
44.7206	201.2427
44.7469	197.1548414
44.7731	203.8071512
44.7994	209.5267938
44.8257	203.5983294
44.852	191.06952
44.8782	190.283568
44.9045	218.9094375
44.9308	188.6194984
44.957	220.559042
44.9833	181.8224986
45.0096	211.4551008
45.0359	205.4988117
45.0621	193.4065332
45.0884	206.6401372
45.1147	213.843678
45.141	202.68309
45.1672	216.8928944
45.1935	197.2696275
45.2198	227.9982316
45.246	204.557166
45.2723	213.6399837
45.2986	215.16835
45.3249	213.8882031
45.3511	216.8236091
45.3774	212.2300998
45.4037	213.7606196
45.4299	226.695201
45.4562	203.1437578
45.4825	198.030805
45.5088	223.2661728
45.535	224.350945
45.5613	219.7421499
45.5876	218.9116552
45.6139	203.8485191
45.6401	217.7489171
45.6664	228.788664
45.6927	213.7047579
45.7189	198.0999937
45.7452	203.4746496
45.7715	215.9957085
45.7978	221.8445432
45.824	226.278912
45.8503	209.6734219
45.8766	199.2879504
45.9028	205.1396132
45.9291	212.4220875
45.9554	203.9500652
45.9817	208.3430827
46.0079	213.7527034
46.0342	215.3019534
46.0605	213.997083
46.0868	215.0870956
46.113	234.392379
46.1393	227.8358634
46.1656	216.4243328
46.1918	231.9290278
46.2181	225.7754185
46.2444	214.8514824
46.2707	224.1352708
46.2969	219.910275
46.3232	237.869632
46.3495	211.4927685
46.3758	210.1287498
46.402	218.971038
46.4283	235.5307659
46.4546	211.4613392
46.4808	214.508892
46.5071	208.816879
46.5334	222.4761854
46.5597	224.5574331
46.5859	206.2357793
46.6122	218.9841156
46.6385	220.0870815
46.6647	208.0312326
46.691	208.662079
46.7173	221.440002
46.7436	218.6198172
46.7698	245.54145
46.7961	222.281475
46.8224	210.7008
46.8487	230.3550579
46.8749	225.0932698
46.9012	220.3418376
46.9275	233.1827475
46.9537	223.499612
46.98	229.4973
47.0063	232.5871724
47.0326	236.6210106
47.0588	209.3175424
47.0851	218.7573746
47.1114	219.8689038
47.1376	229.7958
47.1639	220.1139213
47.1902	206.457125
47.2165	221.350952
47.2427	207.6789092
47.269	227.978387
47.2953	218.7407625
47.3216	226.7651072
47.3478	229.8262212
47.3741	213.657191
47.4004	223.1610832
47.4266	243.535591
47.4529	230.8583585
47.4792	212.6593368
47.5055	217.2426515
47.5317	202.485042
47.558	229.847814
47.5843	229.4990789
47.6105	233.577113
47.6368	207.4106272
47.6631	224.9221689
47.6894	229.0044988
47.7156	220.68465
47.7419	230.2591837
47.7682	227.376632
47.7945	218.5642485
47.8207	227.626532
47.847	215.78997
47.8733	229.8875866
47.8995	237.485721
47.9258	208.1896752
47.9521	214.7774559
47.9784	219.4052232
48.0046	210.500171
48.0309	211.1438364
48.0572	193.7185732
48.0834	222.866559
48.1097	225.5382736
48.136	229.12736
48.1623	211.1916855
48.1885	231.401177
48.2148	220.4862804
48.2411	217.08495
48.2674	216.1896846
48.2936	203.7506984
48.3199	229.036326
48.3462	218.041362
48.3724	213.6608908
48.3987	243.4938597
48.425	212.8763
48.4513	217.0133727
48.4775	242.3875
48.5038	226.3672346
48.5301	222.4134483
48.5563	228.6030604
48.5826	232.8078192
48.6089	257.7243878
48.6352	226.9804784
48.6614	224.0370856
48.6877	232.7758937
48.714	229.881366
48.7403	225.4238875
48.7665	234.7131645
48.7928	230.2532232
48.8191	228.8639408
48.8453	247.7922069
48.8716	227.5461696
48.8979	246.0053349
48.9242	217.1255996
48.9504	230.9969376
48.9767	232.149558
49.003	227.128905
49.0292	201.755158
49.0555	228.9420185
49.0818	219.8373822
49.1081	229.1875027
49.1343	231.8647617
49.1606	240.149531
49.1869	213.1268377
49.2132	213.7821408
49.2394	246.197
49.2657	210.9064617
49.292	214.124448
49.3182	215.767125
49.3445	206.1119765
49.3708	231.4503104
49.3971	224.3616282
49.4233	227.5448732
49.4496	219.9518208
49.4759	208.7388221
49.5021	231.0263007
49.5284	210.4957
49.5547	200.7956444
49.581	239.129163
49.6072	230.9711232
49.6335	216.104259
49.6598	230.173173
49.6861	225.1277191
49.7123	247.0204187
49.7386	222.2818034
49.7649	240.0161127
49.7911	220.4251997
49.8174	225.7226394
49.8437	222.2032146
49.87	222.32046
49.8962	219.3436952
49.9225	222.554505
49.9488	216.9775872
49.975	228.535675
50.0013	222.4057824
50.0276	219.371026
50.0539	210.6268112
50.0801	225.36045
50.1064	215.5577328
50.1327	218.8292355
50.159	226.768839
50.1852	241.5413676
50.2115	220.729754
50.2378	231.2948312
50.264	241.367728
50.2903	224.7473507
50.3166	232.211109
50.3429	224.9824201
50.3691	236.6340318
50.3954	247.2398324
50.4217	248.4277159
50.4479	245.4290335
50.4742	256.0556166
50.5005	264.0671145
50.5268	238.9412372
50.553	236.436381
50.5793	272.3695305
50.6056	268.8675528
50.6319	262.6782972
50.6581	263.3208038
50.6844	259.250706
50.7107	282.6107311
50.7369	252.1116561
50.7632	240.617568
50.7895	249.173287
50.8158	253.570842
50.842	216.58692
50.8683	260.1913545
50.8946	224.8014482
50.9208	217.4827368
50.9471	245.7178633
50.9734	236.8224164
50.9997	241.1775813
51.0259	243.9548279
51.0522	217.482372
51.0785	244.768172
51.1048	237.9439488
51.131	214.647938
51.1573	221.1530079
51.1836	232.9877472
51.2098	218.7170558
51.2361	231.6384081
51.2624	222.6838656
51.2887	235.6202878
51.3149	219.1659379
51.3412	210.1908728
51.3675	225.81153
51.3937	226.4406422
51.42	218.535
51.4463	221.3219826
51.4726	237.546049
51.4988	214.5954996
51.5251	228.1016177
51.5514	214.2476184
51.5777	221.8872654
51.6039	228.4504653
51.6302	219.944652
51.6565	223.3110495
51.6827	221.2536387
51.709	219.76325
51.7353	222.5652606
51.7616	226.457
51.7878	229.2645906
51.8141	207.2564
51.8404	198.7042532
51.8666	226.397709
51.8929	236.2164808
51.9192	227.665692
51.9455	225.0798515
51.9717	228.9873102
51.998	212.307834
52.0243	208.617443
52.0506	222.8286186
52.0768	247.885568
52.1031	233.3697849
52.1294	225.8766902
52.1556	223.2781236
52.1819	219.0596162
52.2082	237.6517264
52.2345	242.1069075
52.2607	218.8678116
52.287	235.2915
52.3133	219.6112334
52.3395	233.329491
52.3658	217.1086068
52.3921	204.1196216
52.4184	232.0562568
52.4446	229.445125
52.4709	244.8816903
52.4972	236.2374
52.5235	216.1342025
52.5497	204.1555845
52.576	234.962144
52.6023	239.4456696
52.6285	252.195772
52.6548	235.8408492
52.6811	225.0009781
52.7074	234.9695892
52.7336	220.2682472
52.7599	229.1890056
52.7862	233.1566454
52.8124	223.3436396
52.8387	227.3120874
52.865	210.349835
52.8913	214.3155476
52.9175	227.12191
52.9438	237.1352802
52.9701	220.7264067
52.9964	250.6199756
53.0226	225.34605
53.0489	228.2163678
53.0752	233.8493312
53.1014	224.0348066
53.1277	210.8638413
53.154	233.08029
53.1803	236.5459744
53.2065	225.59556
53.2328	235.1292776
53.2591	241.3169821
53.2853	221.4537068
53.3116	236.0104532
53.3379	251.1148332
53.3642	235.7096714
53.3904	236.3593008
53.4167	239.840983
53.443	230.499659
53.4693	227.779218
53.4955	206.171657
53.5218	210.7688484
53.5481	228.114906
53.5743	234.9233055
53.6006	200.466244
53.6269	232.3653577
53.6532	220.1927328
53.6794	221.964319
53.7057	228.249225
53.732	235.0775
53.7583	218.9575559
53.7845	221.3232175
53.8108	233.7541152
53.8371	230.4766251
53.8633	247.9866332
53.8896	212.7561408
53.9159	217.9280678
53.9422	204.5488224
53.9684	241.7244636
53.9947	195.7307875
54.021	234.072993
54.0472	218.9992544
54.0735	234.3004755
54.0998	215.858202
54.1261	219.9143443
54.1523	230.147275
54.1786	218.3939366
54.2049	216.277551
54.2312	216.9248
54.2574	218.7115794
54.2837	224.4630995
54.31	202.52199
54.3362	221.3113426
54.3625	225.93055
54.3888	209.6144352
54.4151	217.6604
54.4413	221.7394149
54.4676	229.7988044
54.4939	208.3301797
54.5201	209.5752644
54.5464	211.912764
54.5727	211.4692125
54.599	209.878556
54.6252	224.1818208
54.6515	213.468759
54.6778	235.2238956
54.7041	210.8296014
54.7303	213.7765518
54.7566	221.3261772
54.7829	223.1307517
54.8091	218.688309
54.8354	210.7872776
54.8617	210.2848961
54.888	214.996296
54.9142	214.4948652
54.9405	222.618906
54.9668	233.059232
54.993	216.562434
55.0193	226.9546125
55.0456	251.7235288
55.0719	235.2120849
55.0981	253.1206714
55.1244	215.3159064
55.1507	239.5746408
55.177	232.791763
55.2032	227.161168
55.2295	242.788882
55.2558	235.9975218
55.282	242.41157
55.3083	216.0342198
55.3346	228.808571
55.3609	249.677659
55.3871	232.5150458
55.4134	213.5632436
55.4397	206.1802443
55.4659	229.3514965
55.4922	216.1976112
55.5185	212.2472255
55.5448	194.4068
55.571	209.558241
55.5973	221.2216567
55.6236	215.54145
55.6499	201.1743885
55.6761	207.6161769
55.7024	208.326976
55.7287	207.8123223
55.7549	205.6240712
55.7812	210.9087172
55.8075	206.376135
55.8338	206.4733924
55.86	196.68306
55.8863	201.4142252
55.9126	230.639475
55.9388	223.195812
55.9651	219.7749477
55.9914	209.407836
56.0177	203.0641625
56.0439	199.6844157
56.0702	216.711323
56.0965	210.361875
56.1228	215.1186924
56.149	198.262119
56.1753	203.6354625
56.2016	204.292816
56.2278	236.6065824
56.2541	216.2407604
56.2804	206.3802268
56.3067	211.713192
56.3329	223.5852801
56.3592	201.9350136
56.3855	225.542
56.4117	181.5892623
56.438	208.707724
56.4643	212.9268753
56.4906	193.5932862
56.5168	190.7442
56.5431	213.7894611
56.5694	195.0512912
56.5957	224.6283333
56.6219	219.4098625
56.6482	209.4850436
56.6745	203.0647335
56.7007	195.5040136
56.727	196.161966
56.7533	208.6818841
56.7796	202.8735108
56.8058	198.252242
56.8321	197.1505549
56.8584	210.2623632
56.8846	218.0386718
56.9109	219.9606285
56.9372	198.0845188
56.9635	201.764717
56.9897	206.5876625
57.016	215.007336
57.0423	216.8748246
57.0686	217.6025718
57.0948	199.260852
57.1211	196.9535528
57.1474	210.1309898
57.1736	216.1733816
57.1999	196.0240573
57.2262	227.7030498
57.2525	207.5403125
57.2787	205.8596478
57.305	196.384235
57.3313	203.0674646
57.3575	221.055805
57.3838	201.417138
57.4101	211.0969377
57.4364	215.3865
57.4626	216.6914646
57.4889	224.5516434
57.5152	204.2939904
57.5415	209.1633525
57.5677	195.4999092
57.594	199.160052
57.6203	183.0596931
57.6465	210.755604
57.6728	201.8548
57.6991	198.9464968
57.7254	199.6144332
57.7516	221.3618828
57.7779	209.4448875
57.8042	195.667217
57.8304	192.7487232
57.8567	203.077017
57.883	219.492336
57.9093	208.7051172
57.9355	212.4494785
57.9618	204.6631158
57.9881	217.455375
58.0144	226.0241024
58.0406	212.1964336
58.0669	215.9508011
58.0932	227.5510644
58.1194	207.0794222
58.1457	199.2653139
58.172	200.577056
58.1983	191.5888036
58.2245	229.288081
58.2508	223.2753164
58.2771	214.9259448
58.3033	210.1250932
58.3296	211.4448
58.3559	209.7311046
58.3822	206.1475482
58.4084	203.845316
58.4347	210.0143118
58.461	205.841181
58.4873	216.2860354
58.5135	214.5690045
58.5398	201.2598324
58.5661	205.567011
58.5923	190.424975
58.6186	223.5127218
58.6449	194.2905537
58.6712	204.762488
58.6974	194.4644862
58.7237	213.4606495
58.75	220.3125
58.7762	211.8294248
58.8025	214.98194
58.8288	208.9598976
58.8551	212.7611865
58.8813	214.6812198
58.9076	214.7771096
58.9339	203.2040872
58.9602	226.6430088
58.9864	208.9298288
59.0127	215.1603042
59.039	202.976082
59.0652	224.5658904
59.0915	214.2066875
59.1178	194.6157976
59.1441	239.0604522
59.1703	227.4506332
59.1966	208.4312286
59.2229	196.2054677
59.2491	230.8344936
59.2754	204.9743332
59.3017	216.8070152
59.328	230.48928
59.3542	212.6660986
59.3805	212.1665265
59.4068	222.181432
59.4331	221.6260299
59.4593	239.0858453
59.4856	231.101556
59.5119	233.7032313
59.5381	233.8061187
59.5644	219.6735072
59.5907	243.9643258
59.617	252.120293
59.6432	235.4713536
59.6695	229.966253
59.6958	219.5014566
59.722	226.465824
59.7483	238.395717
59.7746	245.3149584
59.8009	242.3132468
59.8271	241.1630401
59.8534	251.8631072
59.8797	251.3749806
59.906	228.421578
59.9322	244.1038506
59.9585	246.069684
59.9848	224.343152
60.011	256.306981
60.0373	247.6538625
60.0636	249.6243216
60.0899	257.2448619
60.1161	227.2989741
60.1424	231.1873856
60.1687	219.3750802
60.1949	241.381549
60.2212	237.1510856
60.2475	234.72426
60.2738	234.8267248
60.3	228.6576
60.3263	221.2165421
60.3526	228.8570592
60.3789	243.3873459
60.4051	215.2233713
60.4314	207.7631532
60.4577	199.0267484
60.4839	202.8630006
60.5102	206.7633534
60.5365	221.321444
60.5628	218.2683312
60.589	229.087009
60.6153	226.0344537
60.6416	231.8328368
60.6678	230.6589756
60.6941	228.8774511
60.7204	208.7567352
60.7467	218.3236398
60.7729	198.119654
60.7992	223.5586584
60.8255	202.1231365
60.8518	225.0299564
60.878	208.628906
60.9043	229.000168
60.9306	233.5469898
60.9568	210.7886144
60.9831	210.8795598
61.0094	213.5329
61.0357	203.4319881
61.0619	221.9600065
61.0882	203.6069706
61.1145	215.1841545
61.1407	206.3498625
61.167	244.668
61.1933	221.2137795
61.2196	227.6756924
61.2458	207.9907368
61.2721	238.0421085
61.2984	247.7681328
61.3247	225.4909219
61.3509	197.4885471
61.3772	228.8755788
61.4035	212.333303
61.4297	223.2969595
61.456	217.001136
61.4823	234.4320099
61.5086	223.583761
61.5348	241.6471596
61.5611	228.9457309
61.5874	224.5476604
61.6137	219.5296131
61.6399	232.4440629
61.6662	219.0383424
61.6925	228.75579
61.7187	220.5209151
61.745	200.0538
61.7713	217.4967473
61.7976	213.0781248
61.8238	222.1947372
61.8501	219.6915552
61.8764	196.5813228
61.9026	194.064651
61.9289	205.1704457
61.9552	211.7009184
61.9815	208.5677475
62.0077	214.4226266
62.034	199.687446
62.0603	208.8329095
62.0866	210.8460936
62.1128	183.7296624
62.1391	220.0966922
62.1654	196.1940024
62.1916	213.8147208
62.2179	224.9177085
62.2442	202.29365
62.2705	225.7305625
62.2967	216.7302193
62.323	228.538441
62.3493	234.433368
62.3755	192.989797
62.4018	209.2956372
62.4281	195.0878125
62.4544	213.4066848
62.4806	203.686756
62.5069	216.1488602
62.5332	215.6144736
62.5595	207.2596235
62.5857	228.8133192
62.612	205.429972
62.6383	199.0018791
62.6645	204.9755795
62.6908	209.6380352
62.7171	213.6144426
62.7434	220.229334
62.7696	209.2110768
62.7959	192.9718007
62.8222	221.1969662
62.8484	218.6495836
62.8747	210.2529968
62.901	216.882648
62.9273	232.0758824
62.9535	190.8120585
62.9798	208.6520774
63.0061	216.6149718
63.0324	217.3357152
63.0586	212.192189
63.0849	222.1219329
63.1112	207.0678472
63.1374	201.9134052
63.1637	237.495512
63.19	226.40977
63.2163	202.7978904
63.2425	218.692565
63.2688	201.0049776
63.2951	213.6209625
63.3213	217.0020951
63.3476	220.3863004
63.3739	217.1823553
63.4002	224.5635084
63.4264	192.2454184
63.4527	182.4265125
63.479	216.209474
63.5053	197.8190095
63.5315	225.028573
63.5578	208.5331418
63.5841	229.8565215
63.6103	189.4950837
63.6366	230.046309
63.6629	203.5939542
63.6892	226.2240384
63.7154	215.039475
63.7417	207.797942
63.768	207.88368
63.7942	192.7222782
63.8205	199.4390625
63.8468	192.8811828
63.8731	210.2702452
63.8993	203.7109684
63.9256	189.7951064
63.9519	203.1751863
63.9782	203.9625016
64.0044	204.0460272
64.0307	194.7813894
64.057	206.199483
64.0832	231.660768
64.1095	205.663276
64.1358	231.1454232
64.1621	233.2292335
64.1883	219.3314211
64.2146	218.7149276
64.2409	210.1319839
64.2671	226.2844591
64.2934	200.273941
64.3197	219.0728982
64.346	240.65404
64.3722	210.5614662
64.3985	205.946403
64.4248	240.948752
64.4511	202.0541985
64.4773	202.8455858
64.5036	221.7633768
64.5299	214.4328577
64.5561	223.2349938
64.5824	218.611424
64.6087	208.6214923
64.635	197.26602
64.6612	198.7038676
64.6875	203.506875
64.7138	202.230625
64.74	219.1449
64.7663	180.8275096
64.7926	207.8546608
64.8189	224.8567641
64.8451	205.3644317
64.8714	220.3032744
64.8977	227.14195
64.924	204.900144
64.9502	227.3257
64.9765	204.416069
65.0028	211.909128
65.029	201.850016
65.0553	217.5449232
65.0816	218.999584
65.1079	217.0046307
65.1341	198.1379322
65.1604	203.62625
65.1867	226.1326623
65.2129	237.0488915
65.2392	207.2649384
65.2655	215.506681
65.2918	206.0609208
65.318	222.473108
65.3443	204.2009375
65.3706	213.108156
65.3969	209.1392862
65.4231	203.0733024
65.4494	212.71055
65.4757	212.796025
65.5019	212.226156
65.5282	199.3367844
65.5545	235.602873
65.5808	209.0715904
65.607	218.012061
65.6333	211.9299257
65.6596	207.9439532
65.6858	208.0269286
65.7121	225.9181998
65.7384	232.8454128
65.7647	184.2726894
65.7909	221.3863785
65.8172	226.2795336
65.8435	227.686823
65.8698	222.969273
65.896	217.588592
65.9223	203.2384509
65.9486	221.917039
65.9748	199.3098708
66.0011	219.3216553
66.0274	228.3227492
66.0537	238.0575348
66.0799	221.6319846
66.1062	232.032762
66.1325	202.5638475
66.1587	232.217037
66.185	206.166275
66.2113	215.186725
66.2376	204.9391344
66.2638	213.9658102
66.2901	220.2820023
66.3164	206.575586
66.3427	236.3790401
66.3689	220.5438547
66.3952	222.0255488
66.4215	221.3828595
66.4477	234.6268287
66.474	231.99426
66.5003	213.3329624
66.5266	233.508366
66.5528	218.3597368
66.5791	226.1026236
66.6054	239.3798076
66.6316	262.3952408
66.6579	230.5030182
66.6842	216.72365
66.7105	209.871233
66.7367	247.4596836
66.763	230.198824
66.7893	225.4138875
66.8156	219.2219836
66.8418	236.0183958
66.8681	226.3485185
66.8944	226.437544
66.9206	214.0120788
66.9469	216.907956
66.9732	242.77785
66.9995	226.7933075
67.0257	226.8819945
67.052	240.247316
67.0783	214.5164034
67.1045	218.089625
67.1308	220.9945936
67.1571	220.3424451
67.1834	215.5243472
67.2096	214.9363008
67.2359	229.7450703
67.2622	213.6920094
67.2885	210.2765625
67.3147	255.2573424
67.341	229.363446
67.3673	238.6149766
67.3935	209.9307525
67.4198	198.7535704
67.4461	196.7402737
67.4724	203.8341204
67.4986	201.0783294
67.5249	193.4588385
67.5512	210.421988
67.5774	204.1513254
67.6037	233.7735946
67.63	240.96569
67.6563	202.292337
67.6825	229.1052625
67.7088	213.6889728
67.7351	220.816426
67.7614	188.4444534
67.7876	204.040676
67.8139	218.2929441
67.8402	202.0959558
67.8664	212.761164
67.8927	214.2693612
67.919	214.352364
67.9453	244.8748612
67.9715	190.456143
67.9978	222.4208038
68.0241	206.1810471
68.0503	205.5799563
68.0766	212.739375
68.1029	214.9327524
68.1292	205.8183132
68.1554	220.823496
68.1817	239.317767
68.208	218.129184
68.2343	214.6651078
68.2605	221.846625
68.2868	209.8453364
68.3131	227.0044313
68.3393	195.7920945
68.3656	222.871856
68.3919	222.957594
68.4182	202.3810356
68.4444	203.2114236
68.4707	199.7290319
68.497	202.614126
68.5232	197.689432
68.5495	222.785875
68.5758	224.9971998
68.6021	227.9647783
68.6283	198.7475568
68.6546	234.5927682
68.6809	219.6415182
68.7072	211.8242976
68.7334	200.4953278
68.7597	234.9518949
68.786	213.511744
68.8122	209.3267124
68.8385	221.5911315
68.8648	241.0268
68.8911	226.7895012
68.9173	211.7828629
68.9436	223.377264
68.9699	234.2217804
68.9961	217.0617306
69.0224	236.5397648
69.0487	225.098762
69.075	229.536225
69.1012	203.0193256
69.1275	215.3321625
69.1538	206.769862
69.1801	197.4400054
69.2063	214.8163552
69.2326	216.351875
69.2589	225.091425
69.2851	229.5415363
69.3114	205.0231212
69.3377	194.2842354
69.364	209.548644
69.3902	237.8002154
69.4165	229.213283
69.4428	210.4811268
69.4691	212.0196932
69.4953	207.790947
69.5216	208.5648
69.5479	207.1831941
69.5741	208.026559
69.6004	219.6588624
69.6267	226.286775
69.653	218.362155
69.6792	207.5743368
69.7055	222.918189
69.7318	212.1241356
69.758	202.019168
69.7843	234.8241695
69.8106	219.6241476
69.8369	218.9386815
69.8631	227.753706
69.8894	200.932025
69.9157	206.1114836
69.942	210.52542
69.9682	231.8046466
69.9945	212.923269
70.0208	205.7211104
70.047	213.082974
70.0733	223.3936804
70.0996	216.8881624
70.1259	214.7956317
70.1521	230.9407132
70.1784	223.7287392
70.2047	207.6655026
70.2309	199.7366796
70.2572	201.286878
70.2835	207.195758
70.3098	201.437577
70.336	233.726528
70.3623	206.7244374
70.3886	220.668261
70.4149	201.7386885
70.4411	212.027711
70.4674	212.8820154
70.4937	208.5203646
70.5199	210.0787821
70.5462	221.9383452
70.5725	211.7175
70.5988	209.6078372
70.625	203.753125
70.6513	209.7637097
70.6776	209.0643408
70.7038	209.9195822
70.7301	212.1903
70.7564	207.8823032
70.7827	209.3752266
70.8089	218.3038387
70.8352	208.8221696
70.8615	238.4489475
70.8878	217.8382094
70.914	218.627862
70.9403	218.7089449
70.9666	192.1775528
70.9928	180.4636976
71.0191	200.4869193
71.0454	212.425746
71.0717	209.5193716
71.0979	205.1174415
71.1242	199.2900084
71.1505	220.851152
71.1767	203.1383018
71.203	225.499901
71.2293	209.9839764
71.2556	204.85985
71.2818	195.312132
71.3081	226.5458337
71.3344	223.633344
71.3607	219.2914311
71.3869	227.5814372
71.4132	246.9468456
71.4395	221.033813
71.4657	218.1133164
71.492	207.040832
71.5183	229.4307064
71.5446	214.6338
71.5708	218.4340816
71.5971	229.6834968
71.6234	211.1457832
71.6496	226.1261376
71.6759	205.3514535
71.7022	233.749172
71.7285	214.468215
71.7547	214.546553
71.781	221.300823
71.8073	239.3337309
71.8336	233.4592
71.8598	216.297998
71.8861	220.1871243
71.9124	218.7575208
71.9386	218.8372212
71.9649	184.4460387
71.9912	202.5112456
72.0175	231.8243325
72.0437	222.9032078
72.07	201.94014
72.0963	223.0659522
72.1225	209.587985
72.1488	222.4347504
72.1751	217.247051
72.2014	224.1131456
72.2276	204.6207908
72.2539	211.4871653
72.2802	176.2191276
72.3065	231.959252
72.3327	223.0017141
72.359	222.359207
72.3853	189.2875595
72.4115	210.427819
72.4378	209.7798688
72.4641	203.0444082
72.4904	206.8876016
72.5166	213.0537708
72.5429	198.767546
72.5692	229.0283952
72.5954	205.6627682
72.6217	201.2347307
72.648	229.277088
72.6743	208.9386125
72.7005	219.6282105
72.7268	219.7076628
72.7531	197.8156789
72.7794	226.707831
72.8056	209.3161
72.8319	230.6586273
72.8582	202.6186542
72.8844	190.592706
72.9107	207.3580308
72.937	221.874354
72.9633	210.4991205
72.9895	228.0921875
73.0158	215.2505784
73.0421	218.395879
73.0683	217.6704657
73.0946	222.3537732
73.1209	210.9537965
73.1472	210.2982
73.1734	218.788466
73.1997	233.3606436
73.226	223.485752
73.2523	202.9821233
73.2785	183.929035
73.3048	200.0487992
73.3311	202.393836
73.3573	214.7168171
73.3836	207.8957388
73.4099	222.5054069
73.4362	203.4917102
73.4624	200.4788896
73.4887	203.6371877
73.515	189.889245
73.5412	207.6068076
73.5675	197.74944
73.5938	203.9284198
73.6201	208.5657433
73.6463	217.1092924
73.6726	214.9029742
73.6989	211.1473485
73.7252	217.3418896
73.7514	222.8029794
73.7777	212.8486645
73.804	203.69904
73.8302	199.1938796
73.8565	214.626989
73.8828	193.203522
73.9091	217.8840268
73.9353	200.2167924
73.9616	203.3944
73.9879	217.3764502
74.0141	208.9418043
74.0404	206.7207968
74.0667	228.3476361
74.093	206.867656
74.1192	212.351508
74.1455	196.930448
74.1718	207.8293836
74.1981	201.7446339
74.2243	194.8387875
74.2506	198.7688562
74.2769	194.2340935
74.3031	219.7885698
74.3294	198.2365098
74.3557	203.734618
74.382	208.418364
74.4082	214.667657
74.4345	221.7403755
74.4608	214.819408
74.487	211.021671
74.5133	216.5356498
74.5396	211.1706868
74.5659	229.8866697
74.5921	199.6830517
74.6184	199.0072728
74.6447	213.0359738
74.671	205.34525
74.6972	182.1117736
74.7235	196.1491875
74.7498	221.9321562
74.776	217.299056
74.8023	218.9463321
74.8286	197.9964756
74.8549	233.9215625
74.8811	213.7106594
74.9074	216.9318304
74.9337	214.6850505
74.9599	213.9355546
74.9862	221.8091796
75.0125	224.287375
75.0388	214.986162
75.065	204.101735
75.0913	222.1200654
75.1176	208.1508696
75.1439	198.0041765
75.1701	220.8497538
75.1964	188.742964
75.2227	232.7390338
75.2489	203.7740212
75.2752	191.3495584
75.3015	191.416413
75.3278	193.0651514
75.354	195.468276
75.3803	215.9645595
75.4066	218.3775136
75.4328	219.2077168
75.4591	217.6995035
75.4854	209.1700434
75.5117	222.6084916
75.5379	210.0708999
75.5642	214.9045848
75.5905	224.4281945
75.6168	187.4540472
75.643	203.328384
75.6693	195.4538019
75.6956	194.0078228
75.7218	194.8321914
75.7481	223.3053988
75.7744	201.2568064
75.8007	210.8017467
75.8269	182.4395214
75.8532	211.7821344
75.8795	202.3706265
75.9057	209.499732
75.932	199.3215
75.9583	197.0358302
75.9846	220.0514016
76.0108	206.6733652
76.0371	188.4959709
76.0634	208.413716
76.0897	204.5291136
76.1159	221.1928054
76.1422	222.8682194
76.1685	219.7461225
76.1947	202.3731232
76.221	199.317915
76.2473	229.504373
76.2736	231.1852816
76.2998	220.9642208
76.3261	225.0093428
76.3524	217.1462256
76.3786	231.5035366
76.4049	198.9583596
76.4312	224.5548656
76.4575	197.4897225
76.4837	196.7925601
76.51	231.13671
76.5363	198.5351622
76.5626	222.4909156
76.5888	226.5496704
76.6151	229.8453
76.6414	249.850964
76.6676	204.4724892
76.6939	218.1174516
76.7202	203.0016492
76.7465	218.267046
76.7727	218.3415588
76.799	240.764865
76.8253	226.4809844
76.8515	224.1758255
76.8778	235.4767014
76.9041	217.8693153
76.9304	204.3271424
76.9566	229.2537114
76.9829	181.2177466
77.0092	206.1536284
77.0355	204.606288
77.0617	221.5523875
77.088	186.321696
77.1143	208.0543814
77.1405	234.661401
77.1668	206.5755236
77.1931	186.5757227
77.2194	197.9133222
77.2456	198.7529288
77.2719	195.5751789
77.2982	204.5310372
77.3245	212.642375
77.3507	195.0011147
77.377	230.506083
77.4033	228.1849284
77.4295	227.487871
77.4558	202.546917
77.4821	220.3590924
77.5084	222.061566
77.5346	218.1048298
77.5609	206.0017504
77.5872	218.2527936
77.6134	194.0335
77.6397	206.2110432
77.666	194.94166
77.6923	217.6938246
77.7185	195.073435
77.7448	229.1916704
77.7711	215.5037181
77.7974	227.7129898
77.8236	201.0183588
77.8499	184.8935125
77.8762	186.5913752
77.9024	204.4938
77.9287	219.2134331
77.955	218.42991
77.9813	196.5908573
78.0075	212.8824675
78.0338	200.7809674
78.0601	210.6061498
78.0863	196.8555623
78.1126	202.6240844
78.1389	195.34725
78.1652	191.3484096
78.1914	193.0545666
78.2177	211.0313546
78.244	190.758872
78.2703	203.0331582
78.2965	207.172539
78.3228	202.3077924
78.3491	193.4439279
78.3753	202.4433999
78.4016	201.7273168
78.4279	189.5602343
78.4542	215.74905
78.4804	215.036296
78.5067	192.9694686
78.533	202.850739
78.5592	213.6024648
78.5855	177.60323
78.6118	201.4820434
78.6381	199.8980502
78.6643	206.4937875
78.6906	214.7466474
78.7169	213.1653652
78.7432	201.8188216
78.7694	201.0195088
78.7957	192.8918736
78.822	216.7605
78.8482	212.7324436
78.8745	193.873521
78.9008	201.3548416
78.9271	206.3943665
78.9533	191.6196591
78.9796	192.5522648
79.0059	199.9639329
79.0321	205.7995884
79.0584	223.1818632
79.0847	211.7097419
79.111	197.7775
79.1372	211.8502844
79.1635	192.1298145
79.1898	200.4293838
79.2161	208.7344235
79.2423	203.0980149
79.2686	196.5068594
79.2949	193.3209662
79.3211	182.5971722
79.3474	176.0718806
79.3737	178.590825
79.4	183.6522
79.4262	215.9598378
79.4525	185.3626825
79.4788	216.8976452
79.505	168.948125
79.5313	208.7696625
79.5576	201.3602856
79.5839	171.5828884
79.6101	214.7880498
79.6364	214.0626432
79.6627	213.2570479
79.689	200.01939
79.7152	188.526448
79.7415	213.4679955
79.7678	202.7697476
79.794	207.783576
79.8203	191.2494388
79.8466	183.8068732
79.8729	197.2061901
79.8991	215.5677718
79.9254	210.603429
79.9517	214.0307009
79.9779	188.2679766
80.0042	206.6508486
80.0305	229.2873825
80.0568	184.2907536
80.083	214.382191
80.1093	201.074343
80.1356	210.35595
80.1619	225.4954247
80.1881	196.3004688
80.2144	211.364944
80.2407	222.3469797
80.2669	217.3627652
80.2932	204.9082464
80.3195	211.6418825
80.3458	202.5517618
80.372	183.328532
80.3983	212.7339018
80.4246	212.8034916
80.4508	201.127
80.4771	229.6816434
80.5034	212.126459
80.5297	206.3976211
80.5559	199.6980761
80.5822	183.0021762
80.6085	205.712892
80.6348	198.2003384
80.661	213.429006
80.6873	226.9733749
80.7136	203.4789856
80.7398	203.5450358
80.7661	180.916064
80.7924	190.1853096
80.8187	217.2406656
80.8449	192.8150865
80.8712	180.2619048
80.8975	194.639385
80.9237	188.7949921
80.95	220.10305
80.9763	211.7530245
81.0026	170.4294704
81.0288	200.8703952
81.0551	228.0079963
81.0814	199.2980812
81.1077	202.76925
81.1339	204.5385619
81.1602	200.3845338
81.1865	203.778115
81.2127	200.5141563
81.239	210.733966
81.2653	202.350597
81.2916	200.7089604
81.3178	216.8745726
81.3441	202.546809
81.3704	241.5887176
81.3966	202.677534
81.4229	201.0331401
81.4492	190.9169248
81.4755	197.7410385
81.5017	224.129675
81.528	205.532088
81.5543	205.5983903
81.5806	196.2829236
81.6068	193.000082
81.6331	212.5725924
81.6594	187.9799388
81.6856	211.8924464
81.7119	206.8128189
81.7382	218.8131614
81.7645	207.845359
81.7907	219.8534016
81.817	218.205939
81.8433	173.9170125
81.8695	214.9074375
81.8958	193.683567
81.9221	193.7457665
81.9484	188.6452168
81.9746	195.509421
82.0009	196.4741564
82.0272	217.0439712
82.0535	205.954285
82.0797	218.0036832
82.106	224.97044
82.1323	213.0511862
82.1585	210.5722355
82.1848	203.7361192
82.2111	196.9777956
82.2374	220.1495198
82.2636	220.2196572
82.2899	187.7032619
82.3162	204.967338
82.3424	187.8230144
82.3687	207.6514927
82.395	204.257205
82.4213	191.4646799
82.4475	206.11875
82.4738	207.009238
82.5001	216.5627625
82.5264	221.8309632
82.5526	191.7696898
82.5789	183.2425791
82.6052	233.1944796
82.6314	188.4822234
82.6577	177.3834242
82.684	215.309136
82.7103	200.7378981
82.7365	174.9876975
82.7628	207.734628
82.7891	219.0599586
82.8153	196.6863375
82.8416	218.287616
82.8679	197.6399415
82.8942	204.6657798
82.9204	200.4186068
82.9467	211.6799784
82.973	187.51898
82.9993	191.0643886
83.0255	209.3072855
83.0518	209.3735878
83.0781	212.9291703
83.1043	208.591793
83.1306	199.1809176
83.1569	214.7942727
83.1832	203.6324736
83.2094	225.3310552
83.2357	202.0130439
83.262	208.98762
83.2882	213.4676566
83.3145	210.0358545
83.3408	204.0182784
83.3671	171.9863273
83.3933	212.8197016
83.4196	189.4459116
83.4459	204.2755632
83.4722	217.3616088
83.4984	202.6506168
83.5247	207.0577313
83.551	206.287419
83.5772	235.1026636
83.6035	209.00875
83.6298	195.1083234
83.6561	183.8761078
83.6823	199.5822855
83.7086	214.5451418
83.7349	198.8703875
83.7611	176.2333544
83.7874	208.630626
83.8137	207.7741623
83.84	222.67904
83.8662	195.6598446
83.8925	210.570175
83.9188	222.8883328
83.9451	203.7347577
83.9713	203.7983451
83.9976	202.0982256
84.0239	195.1875197
84.0501	198.7784865
84.0764	183.0343228
84.1027	211.097777
84.129	188.44896
84.1552	206.0119296
84.1815	208.6859385
84.2078	194.7726414
84.234	184.303992
84.2603	194.8940739
84.2866	200.180675
84.3129	212.5528209
84.3391	198.5342414
84.3654	198.5961516
84.3917	205.7469646
84.418	218.980292
84.4442	188.2261218
84.4705	193.606386
84.4968	216.5652984
84.523	227.197824
84.5493	228.1140114
84.5756	217.6130188
84.6019	212.350769
84.6281	220.3715724
84.6544	215.1914848
84.6807	212.548557
84.7069	214.3931639
84.7332	209.2062708
84.7595	211.89875
84.7858	200.518417
84.812	217.373156
84.8383	200.6425795
84.8646	179.488629
84.8909	210.4445411
84.9171	203.4613716
84.9434	205.3081978
84.9697	231.0326143
84.9959	217.8444917
85.0222	199.2920368
85.0485	199.353684
85.0748	225.1079208
85.101	207.476238
85.1273	208.3916304
85.1536	208.4560128
85.1799	197.0211087
85.2061	186.4309468
85.2324	203.279274
85.2587	190.979488
85.2849	197.2639737
85.3112	197.3248056
85.3375	208.052825
85.3638	232.1041722
85.39	221.50166
85.4163	194.8345803
85.4426	186.9484088
85.4688	187.8604224
85.4951	211.0874019
85.5214	214.658714
85.5477	178.1958591
85.5739	184.4973284
85.6002	205.0980792
85.6265	186.4088905
85.6528	184.6674368
85.679	207.086143
85.7053	216.0630613
85.7316	184.8373296
85.7578	210.7926724
85.7841	200.1343053
85.8104	210.9219632
85.8367	213.733383
85.8629	202.1212666
85.8892	193.2507
85.9155	183.4295925
85.9417	186.2356639
85.968	225.666
85.9943	194.347118
86.0206	195.3527826
86.0468	204.36115
86.0731	215.18275
86.0994	219.7256688
86.1257	205.4097945
86.1519	205.4722815
86.1782	219.0649844
86.2045	195.7704195
86.2307	216.439057
86.257	181.484728
86.2833	215.70825
86.3096	189.7085008
86.3358	214.0264482
86.3621	188.9602748
86.3884	194.3739
86.4146	209.7282342
86.4409	198.1225428
86.4672	204.494928
86.4935	198.243102
86.5197	191.0354976
86.546	213.682074
86.5723	203.7911942
86.5986	218.3150706
86.6248	203.9147792
86.6511	198.6043212
86.6774	208.5458244
86.7036	192.3952884
86.7299	223.1560327
86.7562	200.6670906
86.7825	214.2659925
86.8087	232.3868899
86.835	217.0875
86.8613	212.6364624
86.8875	206.3578125
86.9138	193.7308602
86.9401	206.4827375
86.9664	208.3714944
86.9926	239.22965
87.0189	201.2747157
87.0452	191.3253496
87.0715	197.7393765
87.0977	228.6314625
87.124	201.517812
87.1503	207.8534655
87.1765	198.8495965
87.2028	229.779378
87.2291	233.5123007
87.2554	216.3061366
87.2816	208.166616
87.3079	211.0231943
87.3342	206.545383
87.3604	208.354554
87.3867	204.8344248
87.413	209.441548
87.4393	196.738425
87.4655	246.9151065
87.4918	211.4676806
87.5181	209.6933676
87.5444	213.4332472
87.5706	213.4971228
87.5969	187.9829474
87.6232	212.6615064
87.6494	191.7768872
87.6757	216.4713033
87.702	212.852754
87.7283	202.9155579
87.7545	202.010859
87.7808	213.0440016
87.8071	224.0837192
87.8333	215.8942514
87.8596	219.649
87.8859	170.3228742
87.9122	196.923328
87.9384	186.8691
87.9647	233.6342432
87.991	199.827561
88.0173	215.4663504
88.0435	198.097875
88.0698	209.165775
88.0961	201.9162612
88.1223	215.7233904
88.1486	225.9248618
88.1749	230.5773635
88.2012	204.0093756
88.2274	215.0984012
88.2537	210.4850745
88.28	210.5478
88.3062	225.3574224
88.3325	210.6730125
88.3588	216.3023424
88.3851	227.4148623
88.4113	209.9768375
88.4376	184.2155208
88.4639	196.3013941
88.4902	207.4210288
88.5164	205.6235972
88.5427	216.7525296
88.569	200.16594
88.5952	194.7322496
88.6215	225.275853
88.6478	186.5149712
88.6741	176.461459
88.7003	223.6134563
88.7266	206.9991578
88.7529	237.5915133
88.7791	216.4434458
88.8054	196.0823232
88.8317	226.6984984
88.858	239.738884
88.8842	194.4786296
88.9105	208.406212
88.9368	188.101332
88.9631	217.7816688
88.9893	236.3555808
89.0156	202.1544276
89.0419	229.9952277
89.0681	234.6944435
89.0944	218.1030912
89.1207	221.910543
89.147	233.119405
89.1732	220.1686308
89.1995	230.4023085
89.2258	220.2985002
89.252	199.92448
89.2783	193.4660761
89.3046	213.9738216
89.3309	200.101216
89.3571	206.6829723
89.3834	213.179409
89.4097	212.3480375
89.436	207.759828
89.4622	205.0473624
89.4885	218.172963
89.5148	206.0630696
89.541	208.899153
89.5673	194.9880121
89.5936	175.4242688
89.6199	214.7292804
89.6461	197.9385888
89.6724	209.2057092
89.6987	204.6027347
89.7249	200.983776
89.7512	222.4932248
89.7775	224.44375
89.8038	229.1792976
89.83	206.78866
89.8563	217.1826771
89.8826	233.1554644
89.9089	229.4475128
89.9351	224.83775
89.9614	229.5814928
89.9877	224.96925
