TwoTheta	Intensity
3.9986	1101.443344
4.0249	1013.339889
4.0512	859.251969
4.0774	872.729764
4.1037	799.249441
4.13	683.613316
4.1563	673.817764
4.1825	611.523441
4.2088	571.018816
4.2351	596.678329
4.2613	537.173329
4.2876	545.923225
4.3139	537.683344
4.3402	500.640625
4.3664	522.808225
4.3927	468.549316
4.419	436.642816
4.4453	440.118441
4.4715	447.576336
4.4978	435.765625
4.5241	444.956836
4.5503	428.821264
4.5766	455.096889
4.6029	417.711844
4.6292	424.112836
4.6554	449.355204
4.6817	402.925329
4.708	391.723264
4.7342	399.160441
4.7605	381.069441
4.7868	390.892441
4.8131	352.725961
4.8393	368.179344
4.8656	425.390625
4.8919	355.473316
4.9182	379.041961
4.9444	359.822961
4.9707	361.3801
4.997	319.515625
5.0232	344.584969
5.0495	349.241344
5.0758	334.194961
5.1021	325.513764
5.1283	303.351889
5.1546	353.139264
5.1809	345.736836
5.2071	282.307204
5.2334	311.734336
5.2597	305.165961
5.286	302.968836
5.3122	304.432704
5.3385	306.6001
5.3648	298.287441
5.3911	277.089316
5.4173	306.6001
5.4436	285.103225
5.4699	282.307204
5.4961	290.429764
5.5224	261.371889
5.5487	299.739969
5.575	257.666704
5.6012	255.328441
5.6275	264.0625
5.6538	294.328336
5.68	300.432889
5.7063	286.523329
5.7326	268.468225
5.7589	290.429764
5.7851	253.350889
5.8114	269.846329
5.8377	239.9401
5.864	274.664329
5.8902	273.637764
5.9165	265.429264
5.9428	247.086961
5.969	228.765625
5.9953	292.923225
6.0216	275.692816
6.0479	263.380441
6.0741	271.557441
6.1004	258.019969
6.1267	286.523329
6.1529	258.341329
6.1792	255.328441
6.2055	292.923225
6.2318	299.739969
6.258	248.724441
6.2843	271.557441
6.3106	258.341329
6.3369	268.828816
6.3631	277.788889
6.3894	287.946961
6.4157	254.019844
6.4419	261.016336
6.4682	268.140625
6.4945	259.338816
6.5208	288.6601
6.547	288.6601
6.5733	293.608225
6.5996	279.524961
6.6258	248.724441
6.6521	273.968704
6.6784	303.351889
6.7047	301.161316
6.7309	269.517889
6.7572	283.349889
6.7835	278.823204
6.8098	271.227961
6.836	282.676969
6.8623	299.359204
6.8886	271.557441
6.9148	268.140625
6.9411	279.524961
6.9674	279.157264
6.9937	306.25
7.0199	300.432889
7.0462	289.3401
7.0725	289.3401
7.0987	291.487329
7.125	274.995889
7.1513	309.900816
7.1776	283.013329
7.2038	297.5625
7.2301	306.25
7.2564	304.083844
7.2827	287.573764
7.3089	290.429764
7.3352	279.524961
7.3615	281.971264
7.3877	280.8976
7.414	317.659329
7.4403	283.013329
7.4666	328.515625
7.4928	309.548836
7.5191	274.332969
7.5454	266.113969
7.5717	286.523329
7.5979	277.788889
7.6242	319.873225
7.6505	330.039889
7.6767	300.432889
7.703	292.923225
7.7293	286.523329
7.7556	301.890625
7.7818	304.781764
7.8081	312.122889
7.8344	284.765625
7.8606	288.6601
7.8869	290.429764
7.9132	287.573764
7.9395	299.359204
7.9657	300.814336
7.992	292.546816
8.0183	292.204836
8.0446	289.3401
8.0708	285.474816
8.0971	321.377329
8.1234	287.573764
8.1496	295.049329
8.1759	289.3401
8.2022	304.432704
8.2285	286.895844
8.2547	281.971264
8.281	303.351889
8.3073	285.812836
8.3335	286.895844
8.3598	307.335961
8.3861	291.145969
8.4124	256.672441
8.4386	300.432889
8.4649	314.317441
8.4912	287.946961
8.5175	286.895844
8.5437	278.489344
8.57	284.765625
8.5963	267.813225
8.6225	270.536704
8.6488	249.039961
8.6751	258.662889
8.7014	259.338816
8.7276	257.345764
8.7539	267.453316
8.7802	293.608225
8.8064	301.543225
8.8327	268.828816
8.859	252.015625
8.8853	265.755204
8.9115	256
8.9378	263.7376
8.9641	253.350889
8.9904	248.0625
9.0166	245.768329
9.0429	223.442704
9.0692	252.015625
9.0954	240.901441
9.1217	249.387264
9.148	247.086961
9.1743	242.518329
9.2005	254.019844
9.2268	220.344336
9.2531	256.672441
9.2793	238.640704
9.3056	246.741264
9.3319	223.741764
9.3582	246.741264
9.3844	225.3001
9.4107	227.195329
9.437	217.5625
9.4633	207.849889
9.4895	223.143844
9.5158	210.25
9.5421	211.149961
9.5683	208.744704
9.5946	198.049329
9.6209	209.033764
9.6472	208.138329
9.6734	201.867264
9.6997	214.183225
9.726	197.177764
9.7522	195.132961
9.7785	198.922816
9.8048	197.458704
9.8311	190.495204
9.8573	193.376836
9.8836	190.219264
9.9099	200.703889
9.9362	180.284329
9.9624	196.2801
9.9887	163.891204
10.015	175.2976
10.0412	174.741961
10.0675	181.683441
10.0938	167.650704
10.1201	173.369889
10.1463	162.8176
10.1726	166.564836
10.1989	159.390625
10.2251	150.822961
10.2514	168.194961
10.2777	155.475961
10.304	154.703844
10.3302	150.822961
10.3565	150.577441
10.3828	156.25
10.4091	144.2401
10.4353	147.525316
10.4616	150.0625
10.4879	141.015625
10.5141	130.576329
10.5404	134.652816
10.5667	130.576329
10.593	144.744961
10.6192	134.420836
10.6455	124.701889
10.6718	123.298816
10.698	127.260961
10.7243	124.925329
10.7506	120.318961
10.7769	125.171344
10.8031	114.447204
10.8294	109.369764
10.8557	110.691441
10.882	121.2201
10.9082	128.436889
10.9345	107.848225
10.9608	105.698961
10.987	121
11.0133	108.076816
11.0396	116.920969
11.0659	90.649441
11.0921	92.833225
11.1184	106.770889
11.1447	105.493441
11.1709	92.044836
11.1972	95.472441
11.2235	99.161764
11.2498	85.7476
11.276	85.174441
11.3023	88.284816
11.3286	96.687889
11.3549	97.713225
11.3811	101.042704
11.4074	90.839961
11.4337	87.890625
11.4599	99.580441
11.4862	91.049764
11.5125	82.500889
11.5388	86.341264
11.565	100.2001
11.5913	86.731969
11.6176	88.472836
11.6438	94.8676
11.6701	78.943225
11.6964	79.512889
11.7227	68.923204
11.7489	77.299264
11.7752	76.5625
11.8015	69.105969
11.8278	70.140625
11.854	72.777961
11.8803	67.551961
11.9066	72.4201
11.9328	70.845889
11.9591	79.887844
11.9854	65.334889
12.0117	76.3876
12.0379	63.504961
12.0642	58.140625
12.0905	63.504961
12.1167	74.390625
12.143	70.492816
12.1693	61.042969
12.1956	68.574961
12.2218	64
12.2481	58.936329
12.2744	63.011844
12.3007	55.785961
12.3269	54.538225
12.3532	51.065316
12.3795	54.538225
12.4057	51.208336
12.432	51.667344
12.4583	58.461316
12.4846	55.323844
12.5108	50.168889
12.5371	56.881764
12.5634	56.565441
12.5896	56.1001
12.6159	62.173225
12.6422	66.357316
12.6685	49.730704
12.6947	47.983329
12.721	48.135844
12.7473	53.319204
12.7736	47.265625
12.7998	55.785961
12.8261	50.168889
12.8524	58.614336
12.8786	45.6976
12.9049	56.881764
12.9312	44.863204
12.9575	50.623225
12.9837	45.846441
13.01	49.589764
13.0363	48.8601
13.0625	49
13.0888	46.416969
13.1151	44.729344
13.1414	49.434961
13.1676	42.928704
13.1939	42.797764
13.2202	41.847961
13.2465	43.612816
13.2727	35.497764
13.299	38.539264
13.3253	38.9376
13.3515	48.135844
13.3778	35.748441
13.4041	47.554816
13.4304	43.612816
13.4566	40.246336
13.4829	45.981961
13.5092	42.653961
13.5354	37.393225
13.5617	43.890625
13.588	42.797764
13.6143	42.1201
13.6405	42.25
13.6668	44.169316
13.6931	44.997264
13.7194	46.553329
13.7456	35.748441
13.7719	46.689889
13.7982	47.692836
13.8244	46.416969
13.8507	48.566961
13.877	48.706441
13.9033	55.011889
13.9295	52.4176
13.9558	61.355889
13.9821	72.25
14.0083	92.833225
14.0346	130.096836
14.0609	160.706329
14.0872	220.344336
14.1134	290.054961
14.1397	334.963204
14.166	316.911204
14.1923	280.5625
14.2185	227.496889
14.2448	175.2976
14.2711	144.2401
14.2973	108.513889
14.3236	79.691329
14.3499	62.678889
14.3762	60.543961
14.4024	62.678889
14.4287	46.131264
14.455	45.981961
14.4812	39.450961
14.5075	38.9376
14.5338	35.8801
14.5601	37.515625
14.5863	38.155329
14.6126	34.152336
14.6389	35.129329
14.6652	32.706961
14.6914	36.759969
14.7177	30.713764
14.744	36.881329
14.7702	30.481441
14.7965	33.790969
14.8228	31.753225
14.8491	33.790969
14.8753	37.515625
14.9016	34.023889
14.9279	36.626704
14.9542	34.515625
14.9804	29.116816
15.0067	36
15.033	33.304441
15.0592	32.114889
15.0855	31.404816
15.1118	28.005264
15.1381	33.547264
15.1643	34.023889
15.1906	28.227969
15.2169	29.571844
15.2431	28.334329
15.2694	35.497764
15.2957	31.169889
15.322	33.419961
15.3482	29.571844
15.3745	33.0625
15.4008	33.0625
15.4271	35.748441
15.4533	34.515625
15.4796	27.123264
15.5059	28.783225
15.5321	29.452329
15.5584	34.023889
15.5847	30.713764
15.611	34.515625
15.6372	31.292836
15.6635	29.680704
15.6898	31.292836
15.716	30.25
15.7423	30.1401
15.7686	39.450961
15.7949	33.663204
15.8211	36.881329
15.8474	28.890625
15.8737	28.005264
15.9	27.888961
15.9262	30.3601
15.9525	28.998225
15.9788	33.1776
16.005	35.628961
16.0313	32.467204
16.0576	32.228329
16.0839	28.334329
16.1101	30.1401
16.1364	28.890625
16.1627	33.304441
16.1889	30.713764
16.2152	34.269316
16.2415	29.343889
16.2678	30.3601
16.294	31.404816
16.3203	27.6676
16.3466	32.581264
16.3729	29.680704
16.3991	29.224836
16.4254	33.790969
16.4517	28.227969
16.4779	34.880836
16.5042	32.114889
16.5305	28.440889
16.5568	28.558336
16.583	28.227969
16.6093	30.481441
16.6356	30.591961
16.6618	34.152336
16.6881	29.116816
16.7144	29.571844
16.7407	28.665316
16.7669	31.169889
16.7932	27.783441
16.8195	28.998225
16.8458	32.228329
16.872	27.888961
16.8983	26.697889
16.9246	25.735329
16.9508	31.990336
16.9771	29.224836
17.0034	28.111204
17.0297	36.881329
17.0559	29.909961
17.0822	33.907329
17.1085	25.522704
17.1347	29.224836
17.161	28.890625
17.1873	34.880836
17.2136	28.005264
17.2398	29.789764
17.2661	28.334329
17.2924	31.058329
17.3187	29.571844
17.3449	31.404816
17.3712	41.177889
17.3975	36.372961
17.4237	29.680704
17.45	31.640625
17.4763	32.9476
17.5026	32.353344
17.5288	31.169889
17.5551	32.581264
17.5814	30.019441
17.6076	29.789764
17.6339	25.948836
17.6602	34.152336
17.6865	29.680704
17.7127	32.706961
17.739	29.224836
17.7653	25.522704
17.7916	25.310961
17.8178	30.25
17.8441	28.998225
17.8704	25.633969
17.8966	28.783225
17.9229	32.228329
17.9492	28.998225
17.9755	26.163225
18.0017	26.801329
18.028	26.915344
18.0543	27.4576
18.0805	26.368225
18.1068	30.25
18.1331	33.419961
18.1594	30.019441
18.1856	27.783441
18.2119	31.877316
18.2382	34.762816
18.2645	29.343889
18.2907	30.1401
18.317	29.343889
18.3433	30.591961
18.3695	35.010889
18.3958	26.584336
18.4221	31.169889
18.4484	28.227969
18.4746	34.152336
18.5009	29.224836
18.5272	30.019441
18.5534	30.824704
18.5797	28.665316
18.606	34.515625
18.6323	30.713764
18.6585	28.558336
18.6848	32.581264
18.7111	39.0625
18.7374	31.640625
18.7636	33.419961
18.7899	32.821441
18.8162	34.515625
18.8424	31.404816
18.8687	32.467204
18.895	33.907329
18.9213	36.881329
18.9475	31.528225
18.9738	28.334329
19.0001	29.452329
19.0263	33.304441
19.0526	28.783225
19.0789	30.713764
19.1052	30.481441
19.1314	33.304441
19.1577	31.753225
19.184	31.058329
19.2103	25.522704
19.2365	31.990336
19.2628	31.169889
19.2891	29.343889
19.3153	30.481441
19.3416	28.890625
19.3679	28.111204
19.3942	28.783225
19.4204	27.342441
19.4467	28.890625
19.473	28.111204
19.4992	28.783225
19.5255	24.9001
19.5518	29.680704
19.5781	31.877316
19.6043	29.116816
19.6306	32.706961
19.6569	30.713764
19.6832	33.1776
19.7094	31.292836
19.7357	33.1776
19.762	31.753225
19.7882	30.824704
19.8145	36.881329
19.8408	32.706961
19.8671	35.378704
19.8933	28.440889
19.9196	31.292836
19.9459	36.1201
19.9721	29.224836
19.9984	25.633969
20.0247	36.1201
20.051	35.8801
20.0772	36.759969
20.1035	39.980329
20.1298	40.908816
20.1561	43.480836
20.1823	47.692836
20.2086	51.509329
20.2349	53.626329
20.2611	60.0625
20.2874	61.528336
20.3137	81
20.34	74.390625
20.3662	61.528336
20.3925	53.934336
20.4188	53.319204
20.445	45.6976
20.4713	48.135844
20.4976	44.729344
20.5239	38.9376
20.5501	39.715204
20.5764	39.853969
20.6027	33.547264
20.629	37.136836
20.6552	32.821441
20.6815	34.762816
20.7078	28.558336
20.734	33.790969
20.7603	33.419961
20.7866	27.123264
20.8129	29.789764
20.8391	29.789764
20.8654	32.581264
20.8917	38.9376
20.9179	31.292836
20.9442	33.663204
20.9705	33.304441
20.9968	30.3601
21.023	34.398225
21.0493	32.114889
21.0756	28.227969
21.1019	35.378704
21.1281	34.269316
21.1544	28.998225
21.1807	29.116816
21.2069	31.640625
21.2332	28.005264
21.2595	34.515625
21.2858	34.762816
21.312	26.915344
21.3383	33.907329
21.3646	34.762816
21.3908	32.821441
21.4171	30.25
21.4434	31.404816
21.4697	36.626704
21.4959	30.824704
21.5222	36.505764
21.5485	38.9376
21.5748	31.404816
21.601	28.334329
21.6273	32.9476
21.6536	31.058329
21.6798	35.497764
21.7061	37.515625
21.7324	30.3601
21.7587	34.762816
21.7849	37.258816
21.8112	35.010889
21.8375	34.633225
21.8637	35.378704
21.89	30.713764
21.9163	31.404816
21.9426	32.467204
21.9688	30.591961
21.9951	34.633225
22.0214	33.790969
22.0477	34.269316
22.0739	29.224836
22.1002	37.638225
22.1265	35.010889
22.1527	33.419961
22.179	31.404816
22.2053	31.058329
22.2316	35.628961
22.2578	29.680704
22.2841	30.591961
22.3104	32.467204
22.3366	33.790969
22.3629	28.440889
22.3892	32.581264
22.4155	33.0625
22.4417	33.1776
22.468	40.246336
22.4943	41.306329
22.5206	34.762816
22.5468	28.005264
22.5731	35.129329
22.5994	29.680704
22.6256	31.877316
22.6519	32.467204
22.6782	32.581264
22.7045	35.497764
22.7307	33.419961
22.757	31.404816
22.7833	39.0625
22.8096	32.706961
22.8358	34.269316
22.8621	33.907329
22.8884	22.165264
22.9146	37.515625
22.9409	33.547264
22.9672	32.467204
22.9935	31.169889
23.0197	31.292836
23.046	32.821441
23.0723	38.800441
23.0985	31.058329
23.1248	36
23.1511	36.759969
23.1774	31.528225
23.2036	27.019204
23.2299	31.058329
23.2562	34.269316
23.2825	32.228329
23.3087	35.628961
23.335	34.398225
23.3613	30.019441
23.3875	35.497764
23.4138	36.881329
23.4401	34.515625
23.4664	32.353344
23.4926	32.706961
23.5189	33.663204
23.5452	33.907329
23.5714	32.467204
23.5977	33.663204
23.624	28.998225
23.6503	37.136836
23.6765	37.136836
23.7028	31.877316
23.7291	32.706961
23.7554	34.515625
23.7816	38.675961
23.8079	34.633225
23.8342	39.980329
23.8604	33.907329
23.8867	38.031889
23.913	33.547264
23.9393	35.378704
23.9655	31.404816
23.9918	47.128225
24.0181	33.790969
24.0443	41.036836
24.0706	40.908816
24.0969	35.628961
24.1232	35.129329
24.1494	33.547264
24.1757	32.353344
24.202	36.1201
24.2283	37.638225
24.2545	40.246336
24.2808	46.977316
24.3071	35.497764
24.3333	45.846441
24.3596	36.372961
24.3859	38.800441
24.4122	35.628961
24.4384	44.023225
24.4647	44.997264
24.491	52.113961
24.5172	58.461316
24.5435	68.923204
24.5698	86.136961
24.5961	91.642329
24.6223	124.233316
24.6486	127.735204
24.6749	121.682961
24.7012	129.163225
24.7274	120.077764
24.7537	87.703225
24.78	77.475204
24.8062	63.170704
24.8325	57.198969
24.8588	48.413764
24.8851	45.5625
24.9113	38.155329
24.9376	46.131264
24.9639	44.448889
24.9901	44.169316
25.0164	39.715204
25.0427	43.480836
25.069	33.0625
25.0952	35.378704
25.1215	37.773316
25.1478	32.114889
25.1741	33.547264
25.2003	41.977441
25.2266	36.626704
25.2529	34.398225
25.2791	34.398225
25.3054	33.907329
25.3317	42.3801
25.358	27.6676
25.3842	33.1776
25.4105	33.547264
25.4368	32.353344
25.463	37.136836
25.4893	36.1201
25.5156	42.1201
25.5419	32.353344
25.5681	37.393225
25.5944	37.002889
25.6207	37.002889
25.647	31.404816
25.6732	29.789764
25.6995	35.010889
25.7258	32.114889
25.752	33.0625
25.7783	34.152336
25.8046	32.581264
25.8309	36.372961
25.8571	37.393225
25.8834	34.762816
25.9097	35.010889
25.9359	39.1876
25.9622	37.638225
25.9885	34.515625
26.0148	40.768225
26.041	39.450961
26.0673	41.705764
26.0936	34.398225
26.1199	34.633225
26.1461	39.0625
26.1724	32.114889
26.1987	32.706961
26.2249	36.626704
26.2512	35.497764
26.2775	34.269316
26.3038	38.539264
26.33	39.450961
26.3563	38.031889
26.3826	39.1876
26.4088	40.640625
26.4351	34.023889
26.4614	36.252441
26.4877	36.626704
26.5139	36
26.5402	35.628961
26.5665	32.706961
26.5928	38.415204
26.619	41.705764
26.6453	39.715204
26.6716	43.335889
26.6978	33.790969
26.7241	38.031889
26.7504	35.628961
26.7767	38.155329
26.8029	32.9476
26.8292	35.497764
26.8555	36
26.8817	32.581264
26.908	37.136836
26.9343	36.626704
26.9606	32.353344
26.9868	34.762816
27.0131	34.515625
27.0394	37.258816
27.0657	38.031889
27.0919	35.8801
27.1182	34.633225
27.1445	38.155329
27.1707	36.759969
27.197	33.304441
27.2233	37.002889
27.2496	36.372961
27.2758	34.398225
27.3021	30.1401
27.3284	39.853969
27.3546	38.675961
27.3809	34.762816
27.4072	38.800441
27.4335	40.640625
27.4597	42.523441
27.486	37.393225
27.5123	37.002889
27.5386	39.853969
27.5648	34.398225
27.5911	38.415204
27.6174	38.800441
27.6436	42.3801
27.6699	39.853969
27.6962	37.136836
27.7225	32.467204
27.7487	34.762816
27.775	36.881329
27.8013	34.633225
27.8275	36.505764
27.8538	37.136836
27.8801	41.447844
27.9064	38.675961
27.9326	37.896336
27.9589	43.204329
27.9852	39.450961
28.0115	31.877316
28.0377	36.505764
28.064	37.136836
28.0903	40.246336
28.1165	42.797764
28.1428	44.448889
28.1691	36
28.1954	36.881329
28.2216	48.706441
28.2479	47.983329
28.2742	42.797764
28.3004	47.692836
28.3267	40.768225
28.353	50.908225
28.3793	63.011844
28.4055	63.504961
28.4318	77.475204
28.4581	79.138816
28.4844	101.042704
28.5106	119.858704
28.5369	125.171344
28.5632	132.0201
28.5894	128.436889
28.6157	113.998329
28.642	103.999204
28.6683	89.075844
28.6945	82.700836
28.7208	62.173225
28.7471	70.140625
28.7733	54.538225
28.7996	56.4001
28.8259	57.988225
28.8522	57.820816
28.8784	49
28.9047	51.509329
28.931	44.582329
28.9573	50.623225
28.9835	53.319204
29.0098	48.413764
29.0361	54.243225
29.0623	58.614336
29.0886	78.765625
29.1149	89.075844
29.1412	108.076816
29.1674	139.051264
29.1937	172.003225
29.22	198.640836
29.2462	180.848704
29.2725	188.210961
29.2988	150.3076
29.3251	113.337316
29.3513	89.453764
29.3776	77.668969
29.4039	76.020961
29.4302	64.496961
29.4564	46.689889
29.4827	56.25
29.509	53.173264
29.5352	45.279441
29.5615	49
29.5878	39.853969
29.6141	40.246336
29.6403	33.419961
29.6666	35.497764
29.6929	41.576704
29.7191	39.325441
29.7454	43.612816
29.7717	37.002889
29.798	36.372961
29.8242	31.990336
29.8505	43.335889
29.8768	38.415204
29.9031	38.291344
29.9293	40.640625
29.9556	34.515625
29.9819	33.790969
30.0081	37.136836
30.0344	32.467204
30.0607	39.853969
30.087	36.1201
30.1132	40.768225
30.1395	36.881329
30.1658	38.155329
30.192	38.291344
30.2183	41.576704
30.2446	34.152336
30.2709	36
30.2971	35.129329
30.3234	35.628961
30.3497	37.136836
30.376	28.998225
30.4022	37.773316
30.4285	40.106889
30.4548	38.539264
30.481	31.292836
30.5073	37.136836
30.5336	31.169889
30.5599	31.528225
30.5861	35.628961
30.6124	36.372961
30.6387	36.759969
30.665	29.571844
30.6912	44.863204
30.7175	37.896336
30.7438	37.773316
30.77	40.513225
30.7963	33.304441
30.8226	41.705764
30.8489	39.589264
30.8751	32.706961
30.9014	32.821441
30.9277	34.633225
30.9539	41.306329
30.9802	40.373316
31.0065	43.612816
31.0328	33.790969
31.059	32.353344
31.0853	30.481441
31.1116	32.353344
31.1379	39.589264
31.1641	34.398225
31.1904	34.152336
31.2167	39.853969
31.2429	36.505764
31.2692	33.0625
31.2955	39.0625
31.3218	33.547264
31.348	40.373316
31.3743	29.680704
31.4006	35.378704
31.4268	38.031889
31.4531	34.880836
31.4794	34.023889
31.5057	35.129329
31.5319	32.581264
31.5582	38.539264
31.5845	33.907329
31.6108	34.398225
31.637	37.258816
31.6633	35.129329
31.6896	35.628961
31.7158	35.129329
31.7421	38.291344
31.7684	38.800441
31.7947	40.373316
31.8209	41.576704
31.8472	40.640625
31.8735	46.977316
31.8997	46.416969
31.926	54.700816
31.9523	62.346816
31.9786	59.582961
32.0048	70.845889
32.0311	80.066704
32.0574	91.450969
32.0837	113.337316
32.1099	118.048225
32.1362	156.25
32.1625	141.253225
32.1887	168.454441
32.215	170.354704
32.2413	147.525316
32.2676	116.467264
32.2938	102.718225
32.3201	91.240704
32.3464	80.442961
32.3726	72.607441
32.3989	63.504961
32.4252	65.674816
32.4515	57.501889
32.4777	56.4001
32.504	49.885969
32.5303	53.772889
32.5566	69.789316
32.5828	69.789316
32.6091	70.140625
32.6354	66.357316
32.6616	62.678889
32.6879	57.988225
32.7142	54.390625
32.7405	56.25
32.7667	47.403225
32.793	49.730704
32.8193	44.997264
32.8455	38.031889
32.8718	36.881329
32.8981	37.515625
32.9244	37.773316
32.9506	37.638225
32.9769	34.762816
33.0032	39.450961
33.0295	37.393225
33.0557	25
33.082	30.3601
33.1083	32.821441
33.1345	29.789764
33.1608	31.990336
33.1871	27.5625
33.2134	35.010889
33.2396	32.467204
33.2659	33.547264
33.2922	28.558336
33.3184	25.1001
33.3447	30.946969
33.371	30.824704
33.3973	28.890625
33.4235	30.25
33.4498	29.452329
33.4761	27.783441
33.5024	38.155329
33.5286	27.342441
33.5549	29.909961
33.5812	28.227969
33.6074	27.019204
33.6337	32.581264
33.66	27.888961
33.6863	31.404816
33.7125	28.005264
33.7388	29.680704
33.7651	24.790441
33.7913	29.224836
33.8176	29.571844
33.8439	28.890625
33.8702	28.558336
33.8964	26.584336
33.9227	27.783441
33.949	28.558336
33.9753	31.169889
34.0015	31.404816
34.0278	26.915344
34.0541	28.005264
34.0803	26.050816
34.1066	28.005264
34.1329	27.237961
34.1592	27.342441
34.1854	30.591961
34.2117	26.481316
34.238	31.753225
34.2642	28.227969
34.2905	28.665316
34.3168	29.224836
34.3431	32.467204
34.3693	32.114889
34.3956	26.697889
34.4219	28.890625
34.4482	24.482704
34.4744	28.558336
34.5007	34.633225
34.527	25.948836
34.5532	29.224836
34.5795	27.342441
34.6058	27.019204
34.6321	32.821441
34.6583	29.909961
34.6846	29.343889
34.7109	25
34.7371	29.452329
34.7634	24.9001
34.7897	26.265625
34.816	27.4576
34.8422	27.783441
34.8685	24.581764
34.8948	26.915344
34.9211	29.789764
34.9473	26.481316
34.9736	25.421764
34.9999	23.765625
35.0261	20.912329
35.0524	27.019204
35.0787	24.790441
35.105	27.342441
35.1312	24.482704
35.1575	27.6676
35.1838	25.310961
35.21	27.5625
35.2363	20.529961
35.2626	27.123264
35.2889	24.275329
35.3151	23.261329
35.3414	23.970816
35.3677	27.888961
35.394	18.870336
35.4202	28.665316
35.4465	28.005264
35.4728	25.1001
35.499	27.019204
35.5253	24.690961
35.5516	20.720704
35.5779	23.261329
35.6041	26.915344
35.6304	24.790441
35.6567	27.6676
35.6829	29.343889
35.7092	22.5625
35.7355	23.970816
35.7618	24.790441
35.788	26.050816
35.8143	24.068836
35.8406	25
35.8669	25.1001
35.8931	24.383844
35.9194	20.629764
35.9457	23.765625
35.9719	21.003889
35.9982	29.116816
36.0245	26.801329
36.0508	23.059204
36.077	23.863225
36.1033	26.801329
36.1296	24.176889
36.1558	23.668225
36.1821	24.383844
36.2084	22.363441
36.2347	24.581764
36.2609	23.261329
36.2872	25.210441
36.3135	26.801329
36.3398	22.165264
36.366	20.912329
36.3923	22.6576
36.4186	25.310961
36.4448	21.780889
36.4711	23.059204
36.4974	24.068836
36.5237	25.210441
36.5499	25.735329
36.5762	27.237961
36.6025	22.071204
36.6287	26.801329
36.655	22.762441
36.6813	27.342441
36.7076	25.421764
36.7338	25.735329
36.7601	25.948836
36.7864	24.581764
36.8127	24.9001
36.8389	24.482704
36.8652	22.071204
36.8915	24.176889
36.9177	29.909961
36.944	27.342441
36.9703	27.4576
36.9966	25.421764
37.0228	22.5625
37.0491	25.948836
37.0754	25.948836
37.1016	29.452329
37.1279	21.298225
37.1542	24.275329
37.1805	28.005264
37.2067	21.003889
37.233	25.421764
37.2593	19.784704
37.2856	25.421764
37.3118	24.790441
37.3381	22.363441
37.3644	22.363441
37.3906	22.4676
37.4169	23.863225
37.4432	23.164969
37.4695	22.6576
37.4957	19.784704
37.522	21.874329
37.5483	25
37.5745	24.275329
37.6008	24.690961
37.6271	20.3401
37.6534	19.598329
37.6796	22.6576
37.7059	26.368225
37.7322	23.164969
37.7585	26.368225
37.7847	24.068836
37.811	23.059204
37.8373	25.1001
37.8635	20.439441
37.8898	23.561316
37.9161	23.464336
37.9424	26.697889
37.9686	23.164969
37.9949	26.584336
38.0212	23.765625
38.0474	30.1401
38.0737	28.227969
38.1	23.357889
38.1263	24.690961
38.1525	30.1401
38.1788	28.440889
38.2051	24.482704
38.2314	29.909961
38.2576	25.1001
38.2839	27.783441
38.3102	28.998225
38.3364	29.452329
38.3627	27.5625
38.389	32.706961
38.4153	27.4576
38.4415	33.0625
38.4678	32.9476
38.4941	39.1876
38.5204	38.9376
38.5466	39.980329
38.5729	52.5625
38.5992	43.480836
38.6254	46.267204
38.6517	51.365889
38.678	45.144961
38.7043	42.25
38.7305	41.447844
38.7568	37.136836
38.7831	41.847961
38.8093	33.419961
38.8356	27.237961
38.8619	28.783225
38.8882	31.528225
38.9144	32.581264
38.9407	30.591961
38.967	24.790441
38.9933	30.481441
39.0195	21.196816
39.0458	25.421764
39.0721	21.298225
39.0983	22.165264
39.1246	19.598329
39.1509	24.790441
39.1772	19.053225
39.2034	28.334329
39.2297	23.765625
39.256	18.241441
39.2822	22.762441
39.3085	20.061441
39.3348	20.629764
39.3611	19.053225
39.3873	22.857961
39.4136	23.970816
39.4399	21.874329
39.4662	24.275329
39.4924	25.210441
39.5187	19.971961
39.545	20.529961
39.5712	21.780889
39.5975	19.228225
39.6238	20.720704
39.6501	19.228225
39.6763	24.9001
39.7026	23.059204
39.7289	22.5625
39.7551	25
39.7814	26.915344
39.8077	23.668225
39.834	21.196816
39.8602	21.104836
39.8865	24.690961
39.9128	23.561316
39.9391	22.4676
39.9653	20.529961
39.9916	26.163225
40.0179	21.104836
40.0441	21.977344
40.0704	24.581764
40.0967	22.5625
40.123	21.390625
40.1492	24.383844
40.1755	24.176889
40.2018	20.061441
40.228	18.957316
40.2543	22.268961
40.2806	26.801329
40.3069	22.165264
40.3331	23.561316
40.3594	25.1001
40.3857	19.873764
40.412	22.857961
40.4382	21.678336
40.4645	20.820969
40.4908	23.164969
40.517	21.874329
40.5433	20.1601
40.5696	25.735329
40.5959	23.164969
40.6221	22.4676
40.6484	20.629764
40.6747	23.357889
40.7009	21.003889
40.7272	23.261329
40.7535	21.298225
40.7798	26.801329
40.806	29.680704
40.8323	27.888961
40.8586	30.481441
40.8849	31.990336
40.9111	25
40.9374	31.990336
40.9637	37.002889
40.9899	32.228329
41.0162	32.9476
41.0425	31.058329
41.0688	28.440889
41.095	37.002889
41.1213	30.25
41.1476	26.050816
41.1738	29.571844
41.2001	35.8801
41.2264	27.342441
41.2527	34.762816
41.2789	28.558336
41.3052	32.581264
41.3315	31.292836
41.3578	33.419961
41.384	30.1401
41.4103	28.111204
41.4366	29.680704
41.4628	29.909961
41.4891	29.452329
41.5154	29.909961
41.5417	26.481316
41.5679	26.265625
41.5942	26.265625
41.6205	25.836889
41.6467	24.176889
41.673	25.522704
41.6993	22.5625
41.7256	26.481316
41.7518	20.25
41.7781	23.261329
41.8044	22.762441
41.8307	19.784704
41.8569	23.464336
41.8832	23.464336
41.9095	19.228225
41.9357	21.780889
41.962	23.970816
41.9883	21.196816
42.0146	21.196816
42.0408	23.668225
42.0671	22.5625
42.0934	23.765625
42.1196	22.857961
42.1459	21.585316
42.1722	19.598329
42.1985	21.874329
42.2247	22.363441
42.251	22.762441
42.2773	26.697889
42.3036	23.164969
42.3298	25.633969
42.3561	22.762441
42.3824	24.275329
42.4086	21.483225
42.4349	22.857961
42.4612	20.720704
42.4875	19.695844
42.5137	19.140625
42.54	25.633969
42.5663	16.842816
42.5925	23.561316
42.6188	20.820969
42.6451	21.874329
42.6714	23.059204
42.6976	23.765625
42.7239	17.884441
42.7502	20.912329
42.7765	21.585316
42.8027	18.957316
42.829	20.720704
42.8553	22.963264
42.8815	17.884441
42.9078	19.873764
42.9341	21.104836
42.9604	22.762441
42.9866	20.439441
43.0129	24.790441
43.0392	23.164969
43.0654	21.585316
43.0917	18.688329
43.118	23.059204
43.1443	23.765625
43.1705	25.421764
43.1968	23.261329
43.2231	18.774889
43.2494	21.003889
43.2756	21.874329
43.3019	21.003889
43.3282	23.059204
43.3544	22.5625
43.3807	25.735329
43.407	27.4576
43.4333	26.050816
43.4595	25.522704
43.4858	23.970816
43.5121	22.071204
43.5383	20.720704
43.5646	24.068836
43.5909	23.863225
43.6172	22.165264
43.6434	23.970816
43.6697	24.275329
43.696	24.482704
43.7223	25
43.7485	21.678336
43.7748	21.874329
43.8011	16.337764
43.8273	20.25
43.8536	18.688329
43.8799	22.268961
43.9062	18.1476
43.9324	22.071204
43.9587	27.237961
43.985	20.720704
44.0112	21.678336
44.0375	24.275329
44.0638	21.104836
44.0901	21.390625
44.1163	19.324816
44.1426	18.957316
44.1689	20.720704
44.1952	22.762441
44.2214	20.720704
44.2477	21.977344
44.274	22.5625
44.3002	20.720704
44.3265	21.196816
44.3528	21.780889
44.3791	21.390625
44.4053	22.762441
44.4316	20.529961
44.4579	24.790441
44.4841	22.762441
44.5104	21.483225
44.5367	20.529961
44.563	23.164969
44.5892	17.189316
44.6155	21.483225
44.6418	22.165264
44.6681	24.9001
44.6943	23.261329
44.7206	20.25
44.7469	19.412836
44.7731	20.720704
44.7994	21.874329
44.8257	20.629764
44.852	18.1476
44.8782	17.9776
44.9045	23.765625
44.9308	17.623204
44.957	24.068836
44.9833	16.337764
45.0096	22.071204
45.0359	20.820969
45.0621	18.421264
45.0884	21.003889
45.1147	22.4676
45.141	20.1601
45.1672	23.059204
45.1935	19.053225
45.2198	25.421764
45.246	20.439441
45.2723	22.268961
45.2986	22.5625
45.3249	22.268961
45.3511	22.857961
45.3774	21.874329
45.4037	22.165264
45.4299	24.9001
45.4562	19.971961
45.4825	18.957316
45.5088	24.068836
45.535	24.275329
45.5613	23.261329
45.5876	23.059204
45.6139	19.971961
45.6401	22.762441
45.6664	25.1001
45.6927	21.874329
45.7189	18.774889
45.7452	19.784704
45.7715	22.268961
45.7978	23.464336
45.824	24.383844
45.8503	20.912329
45.8766	18.870336
45.9028	19.971961
45.9291	21.390625
45.9554	19.695844
45.9817	20.529961
46.0079	21.585316
46.0342	21.874329
46.0605	21.585316
46.0868	21.780889
46.113	25.836889
46.1393	24.383844
46.1656	21.977344
46.1918	25.210441
46.2181	23.863225
46.2444	21.585316
46.2707	23.464336
46.2969	22.5625
46.3232	26.368225
46.3495	20.820969
46.3758	20.529961
46.402	22.268961
46.4283	25.735329
46.4546	20.720704
46.4808	21.298225
46.5071	20.1601
46.5334	22.857961
46.5597	23.261329
46.5859	19.598329
46.6122	22.071204
46.6385	22.268961
46.6647	19.873764
46.691	19.971961
46.7173	22.4676
46.7436	21.874329
46.7698	27.5625
46.7961	22.5625
46.8224	20.25
46.8487	24.176889
46.8749	23.059204
46.9012	22.071204
46.9275	24.690961
46.9537	22.6576
46.98	23.863225
47.0063	24.482704
47.0326	25.310961
47.0588	19.784704
47.0851	21.585316
47.1114	21.780889
47.1376	23.765625
47.1639	21.780889
47.1902	19.140625
47.2165	21.977344
47.2427	19.324816
47.269	23.261329
47.2953	21.390625
47.3216	22.963264
47.3478	23.561316
47.3741	20.3401
47.4004	22.165264
47.4266	26.368225
47.4529	23.668225
47.4792	20.061441
47.5055	20.912329
47.5317	18.1476
47.558	23.357889
47.5843	23.261329
47.6105	24.068836
47.6368	18.957316
47.6631	22.268961
47.6894	23.059204
47.7156	21.390625
47.7419	23.261329
47.7682	22.6576
47.7945	20.912329
47.8207	22.6576
47.847	20.3401
47.8733	23.059204
47.8995	24.581764
47.9258	18.870336
47.9521	20.061441
47.9784	20.912329
48.0046	19.228225
48.0309	19.324816
48.0572	16.248961
48.0834	21.483225
48.1097	21.977344
48.136	22.6576
48.1623	19.228225
48.1885	23.059204
48.2148	20.912329
48.2411	20.25
48.2674	20.061441
48.2936	17.799961
48.3199	22.4676
48.3462	20.3401
48.3724	19.509889
48.3987	25.310961
48.425	19.324816
48.4513	20.061441
48.4775	25
48.5038	21.780889
48.5301	21.003889
48.5563	22.165264
48.5826	22.963264
48.6089	28.111204
48.6352	21.780889
48.6614	21.196816
48.6877	22.857961
48.714	22.268961
48.7403	21.390625
48.7665	23.164969
48.7928	22.268961
48.8191	21.977344
48.8453	25.735329
48.8716	21.678336
48.8979	25.310961
48.9242	19.695844
48.9504	22.268961
48.9767	22.4676
49.003	21.483225
49.0292	16.933225
49.0555	21.780889
49.0818	20.061441
49.1081	21.780889
49.1343	22.268961
49.1606	23.863225
49.1869	18.774889
49.2132	18.870336
49.2394	25
49.2657	18.326961
49.292	18.870336
49.3182	19.140625
49.3445	17.447329
49.3708	21.977344
49.3971	20.629764
49.4233	21.196816
49.4496	19.784704
49.4759	17.799961
49.5021	21.780889
49.5284	18.0625
49.5547	16.418704
49.581	23.261329
49.6072	21.678336
49.6335	18.957316
49.6598	21.483225
49.6861	20.529961
49.7123	24.690961
49.7386	19.971961
49.7649	23.261329
49.7911	19.598329
49.8174	20.529961
49.8437	19.873764
49.87	19.873764
49.8962	19.324816
49.9225	19.873764
49.9488	18.870336
49.975	20.912329
50.0013	19.784704
50.0276	19.228225
50.0539	17.707264
50.0801	20.25
50.1064	18.507204
50.1327	19.053225
50.159	20.439441
50.1852	23.164969
50.2115	19.324816
50.2378	21.196816
50.264	23.059204
50.2903	19.971961
50.3166	21.298225
50.3429	19.971961
50.3691	22.071204
50.3954	24.068836
50.4217	24.275329
50.4479	23.668225
50.4742	25.735329
50.5005	27.342441
50.5268	22.363441
50.553	21.874329
50.5793	28.998225
50.6056	28.227969
50.6319	26.915344
50.6581	27.019204
50.6844	26.163225
50.7107	31.058329
50.7369	24.690961
50.7632	22.4676
50.7895	24.068836
50.8158	24.9001
50.842	18.1476
50.8683	26.163225
50.8946	19.509889
50.9208	18.241441
50.9471	23.261329
50.9734	21.585316
50.9997	22.363441
51.0259	22.857961
51.0522	18.1476
51.0785	22.963264
51.1048	21.678336
51.131	17.623204
51.1573	18.688329
51.1836	20.720704
51.2098	18.241441
51.2361	20.439441
51.2624	18.870336
51.2887	21.104836
51.3149	18.241441
51.3412	16.760836
51.3675	19.324816
51.3937	19.412836
51.42	18.0625
51.4463	18.507204
51.4726	21.298225
51.4988	17.363889
51.5251	19.598329
51.5514	17.272336
51.5777	18.507204
51.6039	19.598329
51.6302	18.1476
51.6565	18.688329
51.6827	18.326961
51.709	18.0625
51.7353	18.507204
51.7616	19.140625
51.7878	19.598329
51.8141	16
51.8404	14.691889
51.8666	19.053225
51.8929	20.720704
51.9192	19.228225
51.9455	18.774889
51.9717	19.412836
51.998	16.670889
52.0243	16.0801
52.0506	18.326961
52.0768	22.6576
52.1031	20.061441
52.1294	18.774889
52.1556	18.326961
52.1819	17.623204
52.2082	20.720704
52.2345	21.483225
52.2607	17.539344
52.287	20.25
52.3133	17.623204
52.3395	19.873764
52.3658	17.189316
52.3921	15.178816
52.4184	19.598329
52.4446	19.140625
52.4709	21.780889
52.4972	20.25
52.5235	16.933225
52.5497	15.093225
52.576	19.971961
52.6023	20.720704
52.6285	22.963264
52.6548	20.061441
52.6811	18.241441
52.7074	19.873764
52.7336	17.447329
52.7599	18.870336
52.7862	19.509889
52.8124	17.884441
52.8387	18.507204
52.865	15.832441
52.8913	16.418704
52.9175	18.421264
52.9438	20.061441
52.9701	17.363889
52.9964	22.363441
53.0226	18.0625
53.0489	18.507204
53.0752	19.412836
53.1014	17.799961
53.1277	15.752961
53.154	19.228225
53.1803	19.784704
53.2065	17.9776
53.2328	19.509889
53.2591	20.529961
53.2853	17.272336
53.3116	19.598329
53.3379	22.165264
53.3642	19.509889
53.3904	19.598329
53.4167	20.1601
53.443	18.601969
53.4693	18.1476
53.4955	14.853316
53.5218	15.507844
53.5481	18.1476
53.5743	19.228225
53.6006	13.9876
53.6269	18.774889
53.6532	16.842816
53.6794	17.098225
53.7057	18.0625
53.732	19.140625
53.7583	16.589329
53.7845	16.933225
53.8108	18.870336
53.8371	18.326961
53.8633	21.196816
53.8896	15.586704
53.9159	16.337764
53.9422	14.379264
53.9684	20.061441
53.9947	13.140625
54.021	18.774889
54.0472	16.418704
54.0735	18.774889
54.0998	15.9201
54.1261	16.507969
54.1523	18.0625
54.1786	16.248961
54.2049	15.9201
54.2312	16
54.2574	16.248961
54.2837	17.098225
54.31	13.905441
54.3362	16.589329
54.3625	17.272336
54.3888	14.853316
54.4151	16
54.4413	16.589329
54.4676	17.799961
54.4939	14.615329
54.5201	14.776336
54.5464	15.093225
54.5727	15.015625
54.599	14.776336
54.6252	16.842816
54.6515	15.256836
54.6778	18.507204
54.7041	14.853316
54.7303	15.256836
54.7566	16.337764
54.7829	16.589329
54.8091	15.9201
54.8354	14.776336
54.8617	14.691889
54.888	15.342889
54.9142	15.256836
54.9405	16.418704
54.9668	17.9776
54.993	15.507844
55.0193	17.015625
55.0456	20.912329
55.0719	18.241441
55.0981	21.104836
55.1244	15.256836
55.1507	18.870336
55.177	17.799961
55.2032	16.933225
55.2295	19.324816
55.2558	18.241441
55.282	19.228225
55.3083	15.256836
55.3346	17.098225
55.3609	20.3401
55.3871	17.623204
55.4134	14.853316
55.4397	13.830961
55.4659	17.098225
55.4922	15.178816
55.5185	14.615329
55.5448	12.25
55.571	14.220441
55.5973	15.832441
55.6236	15.015625
55.6499	13.068225
55.6761	13.905441
55.7024	13.9876
55.7287	13.905441
55.7549	13.601344
55.7812	14.295961
55.8075	13.675204
55.8338	13.675204
55.86	12.397441
55.8863	12.988816
55.9126	17.015625
55.9388	15.9201
55.9651	15.421329
55.9914	13.9876
56.0177	13.140625
56.0439	12.694969
56.0702	14.938225
56.0965	14.0625
56.1228	14.691889
56.149	12.467961
56.1753	13.140625
56.2016	13.213225
56.2278	17.707264
56.2541	14.776336
56.2804	13.446889
56.3067	14.1376
56.3329	15.752961
56.3592	12.837889
56.3855	16
56.4117	10.361961
56.438	13.675204
56.4643	14.220441
56.4906	11.744329
56.5168	11.390625
56.5431	14.295961
56.5694	11.888704
56.5957	15.752961
56.6219	15.015625
56.6482	13.675204
56.6745	12.837889
56.7007	11.888704
56.727	11.957764
56.7533	13.520329
56.7796	12.766329
56.8058	12.1801
56.8321	12.033961
56.8584	13.675204
56.8846	14.691889
56.9109	14.938225
56.9372	12.103441
56.9635	12.545764
56.9897	13.140625
57.016	14.220441
57.0423	14.455204
57.0686	14.538969
57.0948	12.1801
57.1211	11.888704
57.1474	13.520329
57.1736	14.295961
57.1999	11.744329
57.2262	15.832441
57.2525	13.140625
57.2787	12.916836
57.305	11.744329
57.3313	12.545764
57.3575	14.853316
57.3838	12.3201
57.4101	13.520329
57.4364	14.0625
57.4626	14.220441
57.4889	15.256836
57.5152	12.616704
57.5415	13.213225
57.5677	11.532816
57.594	11.957764
57.6203	10.093329
57.6465	13.366336
57.6728	12.25
57.6991	11.888704
57.7254	11.957764
57.7516	14.691889
57.7779	13.140625
57.8042	11.458225
57.8304	11.108889
57.8567	12.3201
57.883	14.379264
57.9093	12.988816
57.9355	13.446889
57.9618	12.467961
57.9881	14.0625
58.0144	15.178816
58.0406	13.366336
58.0669	13.830961
58.0932	15.342889
58.1194	12.694969
58.1457	11.744329
58.172	11.888704
58.1983	10.837264
58.2245	15.507844
58.2508	14.691889
58.2771	13.601344
58.3033	12.988816
58.3296	13.140625
58.3559	12.916836
58.3822	12.467961
58.4084	12.1801
58.4347	12.916836
58.461	12.397441
58.4873	13.675204
58.5135	13.446889
58.5398	11.819844
58.5661	12.3201
58.5923	10.5625
58.6186	14.538969
58.6449	10.975969
58.6712	12.1801
58.6974	10.975969
58.7237	13.213225
58.75	14.0625
58.7762	12.988816
58.8025	13.366336
58.8288	12.616704
58.8551	13.068225
58.8813	13.293316
58.9076	13.293316
58.9339	11.888704
58.9602	14.776336
58.9864	12.545764
59.0127	13.293316
59.039	11.819844
59.0652	14.455204
59.0915	13.140625
59.1178	10.837264
59.1441	16.337764
59.1703	14.776336
59.1966	12.397441
59.2229	10.975969
59.2491	15.178816
59.2754	11.957764
59.3017	13.366336
59.328	15.093225
59.3542	12.837889
59.3805	12.766329
59.4068	13.9876
59.4331	13.905441
59.4593	16.168441
59.4856	15.093225
59.5119	15.421329
59.5381	15.421329
59.5644	13.601344
59.5907	16.760836
59.617	17.884441
59.6432	15.586704
59.6695	14.853316
59.6958	13.520329
59.722	14.379264
59.7483	15.9201
59.7746	16.842816
59.8009	16.418704
59.8271	16.248961
59.8534	17.707264
59.8797	17.623204
59.906	14.538969
59.9322	16.589329
59.9585	16.842816
59.9848	13.9876
60.011	18.241441
60.0373	17.015625
60.0636	17.272336
60.0899	18.326961
60.1161	14.295961
60.1424	14.776336
60.1687	13.293316
60.1949	16.0801
60.2212	15.507844
60.2475	15.178816
60.2738	15.178816
60.3	14.379264
60.3263	13.446889
60.3526	14.379264
60.3789	16.248961
60.4051	12.694969
60.4314	11.819844
60.4577	10.837264
60.4839	11.249316
60.5102	11.675889
60.5365	13.366336
60.5628	12.988816
60.589	14.295961
60.6153	13.905441
60.6416	14.615329
60.6678	14.455204
60.6941	14.220441
60.7204	11.819844
60.7467	12.916836
60.7729	10.6276
60.7992	13.520329
60.8255	11.042329
60.8518	13.675204
60.878	11.744329
60.9043	14.1376
60.9306	14.691889
60.9568	11.957764
60.9831	11.957764
61.0094	12.25
61.0357	11.108889
61.0619	13.213225
61.0882	11.108889
61.1145	12.397441
61.1407	11.390625
61.167	16
61.1933	13.068225
61.2196	13.830961
61.2458	11.532816
61.2721	15.093225
61.2984	16.337764
61.3247	13.520329
61.3509	10.361961
61.3772	13.905441
61.4035	11.957764
61.4297	13.213225
61.456	12.467961
61.4823	14.538969
61.5086	13.213225
61.5348	15.421329
61.5611	13.830961
61.5874	13.293316
61.6137	12.694969
61.6399	14.220441
61.6662	12.616704
61.6925	13.749264
61.7187	12.766329
61.745	10.4976
61.7713	12.397441
61.7976	11.888704
61.8238	12.916836
61.8501	12.616704
61.8764	10.093329
61.9026	9.828225
61.9289	10.975969
61.9552	11.675889
61.9815	11.323225
62.0077	11.957764
62.034	10.361961
62.0603	11.323225
62.0866	11.532816
62.1128	8.749764
62.1391	12.545764
62.1654	9.960336
62.1916	11.819844
62.2179	13.068225
62.2442	10.5625
62.2705	13.140625
62.2967	12.103441
62.323	13.446889
62.3493	14.1376
62.3755	9.572836
62.4018	11.249316
62.4281	9.765625
62.4544	11.675889
62.4806	10.6276
62.5069	11.957764
62.5332	11.888704
62.5595	10.975969
62.5857	13.366336
62.612	10.764961
62.6383	10.093329
62.6645	10.699441
62.6908	11.182336
62.7171	11.600836
62.7434	12.3201
62.7696	11.108889
62.7959	9.443329
62.8222	12.397441
62.8484	12.103441
62.8747	11.182336
62.901	11.888704
62.9273	13.601344
62.9535	9.186961
62.9798	10.975969
63.0061	11.819844
63.0324	11.888704
63.0586	11.323225
63.0849	12.397441
63.1112	10.764961
63.1374	10.227204
63.1637	14.1376
63.19	12.837889
63.2163	10.291264
63.2425	11.957764
63.2688	10.093329
63.2951	11.390625
63.3213	11.744329
63.3476	12.103441
63.3739	11.744329
63.4002	12.545764
63.4264	9.186961
63.4527	8.265625
63.479	11.600836
63.5053	9.703225
63.5315	12.545764
63.5578	10.764961
63.5841	13.068225
63.6103	8.874441
63.6366	13.068225
63.6629	10.227204
63.6892	12.616704
63.7154	11.390625
63.7417	10.6276
63.768	10.6276
63.7942	9.126441
63.8205	9.765625
63.8468	9.126441
63.8731	10.837264
63.8993	10.163344
63.9256	8.814961
63.9519	10.093329
63.9782	10.163344
64.0044	10.163344
64.0307	9.253764
64.057	10.361961
64.0832	13.068225
64.1095	10.291264
64.1358	12.988816
64.1621	13.213225
64.1883	11.675889
64.2146	11.600836
64.2409	10.699441
64.2671	12.397441
64.2934	9.703225
64.3197	11.600836
64.346	13.9876
64.3722	10.699441
64.3985	10.227204
64.4248	13.9876
64.4511	9.828225
64.4773	9.897316
64.5036	11.819844
64.5299	11.042329
64.5561	11.957764
64.5824	11.458225
64.6087	10.426441
64.635	9.314704
64.6612	9.443329
64.6875	9.897316
64.7138	9.765625
64.74	11.458225
64.7663	7.795264
64.7926	10.291264
64.8189	12.033961
64.8451	10.029889
64.8714	11.532816
64.8977	12.25
64.924	9.960336
64.9502	12.25
64.9765	9.897316
65.0028	10.6276
65.029	9.634816
65.0553	11.182336
65.0816	11.323225
65.1079	11.108889
65.1341	9.253764
65.1604	9.765625
65.1867	12.033961
65.2129	13.213225
65.2392	10.093329
65.2655	10.903204
65.2918	9.960336
65.318	11.600836
65.3443	9.765625
65.3706	10.6276
65.3969	10.227204
65.4231	9.634816
65.4494	10.5625
65.4757	10.5625
65.5019	10.4976
65.5282	9.253764
65.5545	12.916836
65.5808	10.163344
65.607	11.042329
65.6333	10.426441
65.6596	10.029889
65.6858	10.029889
65.7121	11.819844
65.7384	12.545764
65.7647	7.851204
65.7909	11.323225
65.8172	11.819844
65.8435	11.957764
65.8698	11.458225
65.896	10.903204
65.9223	9.504889
65.9486	11.323225
65.9748	9.126441
66.0011	11.042329
66.0274	11.957764
66.0537	12.988816
66.0799	11.249316
66.1062	12.3201
66.1325	9.381969
66.1587	12.3201
66.185	9.703225
66.2113	10.5625
66.2376	9.572836
66.2638	10.426441
66.2901	11.042329
66.3164	9.703225
66.3427	12.694969
66.3689	11.042329
66.3952	11.182336
66.4215	11.108889
66.4477	12.467961
66.474	12.1801
66.5003	10.291264
66.5266	12.3201
66.5528	10.764961
66.5791	11.532816
66.6054	12.916836
66.6316	15.507844
66.6579	11.957764
66.6842	10.5625
66.7105	9.897316
66.7367	13.749264
66.763	11.888704
66.7893	11.390625
66.8156	10.764961
66.8418	12.467961
66.8681	11.458225
66.8944	11.458225
66.9206	10.227204
66.9469	10.4976
66.9732	13.140625
66.9995	11.458225
67.0257	11.458225
67.052	12.837889
67.0783	10.227204
67.1045	10.5625
67.1308	10.837264
67.1571	10.764961
67.1834	10.291264
67.2096	10.227204
67.2359	11.675889
67.2622	10.093329
67.2885	9.765625
67.3147	14.379264
67.341	11.600836
67.3673	12.545764
67.3935	9.703225
67.4198	8.690704
67.4461	8.508889
67.4724	9.126441
67.4986	8.874441
67.5249	8.208225
67.5512	9.703225
67.5774	9.126441
67.6037	11.957764
67.63	12.694969
67.6563	8.9401
67.6825	11.458225
67.7088	9.960336
67.7351	10.6276
67.7614	7.733961
67.7876	9.0601
67.8139	10.361961
67.8402	8.874441
67.8664	9.828225
67.8927	9.960336
67.919	9.960336
67.9453	12.988816
67.9715	7.851204
67.9978	10.699441
68.0241	9.186961
68.0503	9.126441
68.0766	9.765625
68.1029	9.960336
68.1292	9.126441
68.1554	10.4976
68.1817	12.3201
68.208	10.227204
68.2343	9.897316
68.2605	10.5625
68.2868	9.443329
68.3131	11.042329
68.3393	8.208225
68.3656	10.6276
68.3919	10.6276
68.4182	8.749764
68.4444	8.814961
68.4707	8.508889
68.497	8.749764
68.5232	8.323225
68.5495	10.5625
68.5758	10.764961
68.6021	11.042329
68.6283	8.386816
68.6546	11.675889
68.6809	10.227204
68.7072	9.504889
68.7334	8.508889
68.7597	11.675889
68.786	9.634816
68.8122	9.253764
68.8385	10.361961
68.8648	12.25
68.8911	10.837264
68.9173	9.443329
68.9436	10.4976
68.9699	11.532816
68.9961	9.897316
69.0224	11.744329
69.0487	10.6276
69.075	11.042329
69.1012	8.631844
69.1275	9.703225
69.1538	8.9401
69.1801	8.145316
69.2063	9.634816
69.2326	9.765625
69.2589	10.5625
69.2851	10.975969
69.3114	8.749764
69.3377	7.851204
69.364	9.126441
69.3902	11.744329
69.4165	10.903204
69.4428	9.186961
69.4691	9.314704
69.4953	8.9401
69.5216	9
69.5479	8.874441
69.5741	8.9401
69.6004	9.960336
69.6267	10.5625
69.653	9.828225
69.6792	8.874441
69.7055	10.227204
69.7318	9.253764
69.758	8.386816
69.7843	11.323225
69.8106	9.897316
69.8369	9.828225
69.8631	10.6276
69.8894	8.265625
69.9157	8.690704
69.942	9.0601
69.9682	10.975969
69.9945	9.253764
70.0208	8.631844
70.047	9.253764
70.0733	10.163344
70.0996	9.572836
70.1259	9.381969
70.1521	10.837264
70.1784	10.163344
70.2047	8.749764
70.2309	8.088336
70.2572	8.208225
70.2835	8.690704
70.3098	8.208225
70.336	11.042329
70.3623	8.631844
70.3886	9.828225
70.4149	8.208225
70.4411	9.0601
70.4674	9.126441
70.4937	8.749764
70.5199	8.874441
70.5462	9.897316
70.5725	9
70.5988	8.814961
70.625	8.323225
70.6513	8.814961
70.6776	8.749764
70.7038	8.814961
70.7301	9
70.7564	8.631844
70.7827	8.749764
70.8089	9.504889
70.8352	8.690704
70.8615	11.323225
70.8878	9.443329
70.914	9.504889
70.9403	9.504889
70.9666	7.333264
70.9928	6.461764
71.0191	7.969329
71.0454	8.9401
71.0717	8.690704
71.0979	8.323225
71.1242	7.851204
71.1505	9.634816
71.1767	8.145316
71.203	10.029889
71.2293	8.690704
71.2556	8.265625
71.2818	7.5076
71.3081	10.093329
71.3344	9.828225
71.3607	9.443329
71.3869	10.163344
71.4132	11.957764
71.4395	9.572836
71.4657	9.314704
71.492	8.386816
71.5183	10.291264
71.5446	9
71.5708	9.314704
71.5971	10.291264
71.6234	8.690704
71.6496	9.960336
71.6759	8.208225
71.7022	10.6276
71.7285	8.9401
71.7547	8.9401
71.781	9.504889
71.8073	11.108889
71.8336	10.5625
71.8598	9.0601
71.8861	9.381969
71.9124	9.253764
71.9386	9.253764
71.9649	6.568969
71.9912	7.912969
72.0175	10.361961
72.0437	9.572836
72.07	7.851204
72.0963	9.572836
72.1225	8.444836
72.1488	9.504889
72.1751	9.0601
72.2014	9.634816
72.2276	8.025889
72.2539	8.567329
72.2802	5.943844
72.3065	10.291264
72.3327	9.504889
72.359	9.443329
72.3853	6.838225
72.4115	8.444836
72.4378	8.386816
72.4641	7.851204
72.4904	8.145316
72.5166	8.631844
72.5429	7.5076
72.5692	9.960336
72.5954	8.025889
72.6217	7.678441
72.648	9.960336
72.6743	8.265625
72.7005	9.126441
72.7268	9.126441
72.7531	7.392961
72.7794	9.703225
72.8056	8.265625
72.8319	10.029889
72.8582	7.733961
72.8844	6.838225
72.9107	8.088336
72.937	9.253764
72.9633	8.323225
72.9895	9.765625
73.0158	8.690704
73.0421	8.9401
73.0683	8.874441
73.0946	9.253764
73.1209	8.323225
73.1472	8.265625
73.1734	8.9401
73.1997	10.163344
73.226	9.314704
73.2523	7.678441
73.2785	6.3001
73.3048	7.447441
73.3311	7.6176
73.3573	8.567329
73.3836	8.025889
73.4099	9.186961
73.4362	7.678441
73.4624	7.447441
73.4887	7.678441
73.515	6.671889
73.5412	7.969329
73.5675	7.225344
73.5938	7.678441
73.6201	8.025889
73.6463	8.690704
73.6726	8.508889
73.6989	8.208225
73.7252	8.690704
73.7514	9.126441
73.7777	8.323225
73.804	7.6176
73.8302	7.279204
73.8565	8.444836
73.8828	6.838225
73.9091	8.690704
73.9353	7.333264
73.9616	7.5625
73.9879	8.631844
74.0141	7.969329
74.0404	7.795264
74.0667	9.504889
74.093	7.795264
74.1192	8.208225
74.1455	7.054336
74.1718	7.851204
74.1981	7.392961
74.2243	6.890625
74.2506	7.166329
74.2769	6.838225
74.3031	8.749764
74.3294	7.112889
74.3557	7.5076
74.382	7.851204
74.4082	8.323225
74.4345	8.874441
74.4608	8.323225
74.487	8.025889
74.5133	8.444836
74.5396	8.025889
74.5659	9.504889
74.5921	7.166329
74.6184	7.112889
74.6447	8.145316
74.671	7.5625
74.6972	5.943844
74.7235	6.890625
74.7498	8.814961
74.776	8.444836
74.8023	8.567329
74.8286	7.001316
74.8549	9.765625
74.8811	8.145316
74.9074	8.386816
74.9337	8.208225
74.9599	8.145316
74.9862	8.749764
75.0125	8.9401
75.0388	8.208225
75.065	7.392961
75.0913	8.749764
75.1176	7.678441
75.1439	6.943225
75.1701	8.631844
75.1964	6.3001
75.2227	9.572836
75.2489	7.333264
75.2752	6.461764
75.3015	6.461764
75.3278	6.568969
75.354	6.728836
75.3803	8.208225
75.4066	8.386816
75.4328	8.444836
75.4591	8.323225
75.4854	7.678441
75.5117	8.690704
75.5379	7.733961
75.5642	8.088336
75.5905	8.814961
75.6168	6.145441
75.643	7.225344
75.6693	6.671889
75.6956	6.568969
75.7218	6.620329
75.7481	8.690704
75.7744	7.054336
75.8007	7.733961
75.8269	5.788836
75.8532	7.795264
75.8795	7.112889
75.9057	7.6176
75.932	6.890625
75.9583	6.728836
75.9846	8.386816
76.0108	7.392961
76.0371	6.145441
76.0634	7.5076
76.0897	7.225344
76.1159	8.444836
76.1422	8.567329
76.1685	8.323225
76.1947	7.054336
76.221	6.838225
76.2473	9.0601
76.2736	9.186961
76.2998	8.386816
76.3261	8.690704
76.3524	8.088336
76.3786	9.186961
76.4049	6.780816
76.4312	8.631844
76.4575	6.671889
76.4837	6.620329
76.51	9.126441
76.5363	6.728836
76.5626	8.444836
76.5888	8.749764
76.6151	9
76.6414	10.6276
76.6676	7.112889
76.6939	8.088336
76.7202	7.001316
76.7465	8.088336
76.7727	8.088336
76.799	9.828225
76.8253	8.690704
76.8515	8.508889
76.8778	9.381969
76.9041	8.025889
76.9304	7.054336
76.9566	8.874441
76.9829	5.541316
77.0092	7.166329
77.0355	7.054336
77.0617	8.265625
77.088	5.841889
77.1143	7.279204
77.1405	9.253764
77.1668	7.166329
77.1931	5.841889
77.2194	6.568969
77.2456	6.620329
77.2719	6.405961
77.2982	7.001316
77.3245	7.5625
77.3507	6.355441
77.377	8.874441
77.4033	8.690704
77.4295	8.631844
77.4558	6.838225
77.4821	8.088336
77.5084	8.208225
77.5346	7.912969
77.5609	7.054336
77.5872	7.912969
77.6134	6.25
77.6397	7.054336
77.666	6.3001
77.6923	7.851204
77.7185	6.3001
77.7448	8.690704
77.7711	7.678441
77.7974	8.567329
77.8236	6.671889
77.8499	5.640625
77.8762	5.740816
77.9024	6.890625
77.9287	7.912969
77.955	7.851204
77.9813	6.355441
78.0075	7.447441
78.0338	6.620329
78.0601	7.279204
78.0863	6.355441
78.1126	6.728836
78.1389	6.25
78.1652	5.992704
78.1914	6.095961
78.2177	7.279204
78.244	5.943844
78.2703	6.728836
78.2965	7.001316
78.3228	6.671889
78.3491	6.095961
78.3753	6.671889
78.4016	6.620329
78.4279	5.841889
78.4542	7.5625
78.4804	7.5076
78.5067	6.041764
78.533	6.671889
78.5592	7.392961
78.5855	5.1076
78.6118	6.568969
78.6381	6.461764
78.6643	6.890625
78.6906	7.447441
78.7169	7.333264
78.7432	6.568969
78.7694	6.512704
78.7957	5.992704
78.822	7.5625
78.8482	7.279204
78.8745	6.041764
78.9008	6.512704
78.9271	6.838225
78.9533	5.890329
78.9796	5.943844
79.0059	6.405961
79.0321	6.780816
79.0584	7.969329
79.0847	7.166329
79.111	6.25
79.1372	7.166329
79.1635	5.890329
79.1898	6.405961
79.2161	6.943225
79.2423	6.568969
79.2686	6.145441
79.2949	5.943844
79.3211	5.299204
79.3474	4.923961
79.3737	5.0625
79.4	5.349969
79.4262	7.392961
79.4525	5.442889
79.4788	7.447441
79.505	4.515625
79.5313	6.890625
79.5576	6.405961
79.5839	4.648336
79.6101	7.279204
79.6364	7.225344
79.6627	7.166329
79.689	6.3001
79.7152	5.593225
79.7415	7.166329
79.7678	6.461764
79.794	6.780816
79.8203	5.740816
79.8466	5.299204
79.8729	6.095961
79.8991	7.279204
79.9254	6.943225
79.9517	7.166329
79.9779	5.541316
80.0042	6.671889
80.0305	8.208225
80.0568	5.299204
80.083	7.166329
80.1093	6.3001
80.1356	6.890625
80.1619	7.912969
80.1881	5.992704
80.2144	6.943225
80.2407	7.678441
80.2669	7.333264
80.2932	6.512704
80.3195	6.943225
80.3458	6.355441
80.372	5.202961
80.3983	7.001316
80.4246	7.001316
80.4508	6.25
80.4771	8.145316
80.5034	6.943225
80.5297	6.568969
80.5559	6.145441
80.5822	5.157441
80.6085	6.512704
80.6348	6.041764
80.661	7.001316
80.6873	7.912969
80.7136	6.355441
80.7398	6.355441
80.7661	5.0176
80.7924	5.541316
80.8187	7.225344
80.8449	5.688225
80.8712	4.968441
80.8975	5.788836
80.9237	5.442889
80.95	7.392961
80.9763	6.838225
81.0026	4.426816
81.0288	6.145441
81.0551	7.912969
81.0814	6.041764
81.1077	6.25
81.1339	6.355441
81.1602	6.095961
81.1865	6.3001
81.2127	6.095961
81.239	6.728836
81.2653	6.2001
81.2916	6.095961
81.3178	7.112889
81.3441	6.2001
81.3704	8.814961
81.3966	6.2001
81.4229	6.095961
81.4492	5.494336
81.4755	5.890329
81.5017	7.5625
81.528	6.355441
81.5543	6.355441
81.5806	5.788836
81.6068	5.593225
81.6331	6.780816
81.6594	5.299204
81.6856	6.728836
81.7119	6.405961
81.7382	7.166329
81.7645	6.461764
81.7907	7.225344
81.817	7.112889
81.8433	4.515625
81.8695	6.890625
81.8958	5.593225
81.9221	5.593225
81.9484	5.299204
81.9746	5.688225
82.0009	5.740816
82.0272	7.001316
82.0535	6.3001
82.0797	7.054336
82.106	7.5076
82.1323	6.728836
82.1585	6.568969
82.1848	6.145441
82.2111	5.740816
82.2374	7.166329
82.2636	7.166329
82.2899	5.202961
82.3162	6.2001
82.3424	5.202961
82.3687	6.355441
82.395	6.145441
82.4213	5.396329
82.4475	6.25
82.4738	6.3001
82.5001	6.890625
82.5264	7.225344
82.5526	5.396329
82.5789	4.923961
82.6052	7.969329
82.6314	5.202961
82.6577	4.605316
82.684	6.780816
82.7103	5.890329
82.7365	4.473225
82.7628	6.3001
82.7891	7.001316
82.8153	5.640625
82.8416	6.943225
82.8679	5.688225
82.8942	6.095961
82.9204	5.841889
82.9467	6.512704
82.973	5.1076
82.9993	5.299204
83.0255	6.355441
83.0518	6.355441
83.0781	6.568969
83.1043	6.3001
83.1306	5.740816
83.1569	6.671889
83.1832	5.992704
83.2094	7.333264
83.2357	5.890329
83.262	6.3001
83.2882	6.568969
83.3145	6.355441
83.3408	5.992704
83.3671	4.255969
83.3933	6.512704
83.4196	5.157441
83.4459	5.992704
83.4722	6.780816
83.4984	5.890329
83.5247	6.145441
83.551	6.095961
83.5772	7.912969
83.6035	6.25
83.6298	5.442889
83.6561	4.831204
83.6823	5.688225
83.7086	6.568969
83.7349	5.640625
83.7611	4.426816
83.7874	6.2001
83.8137	6.145441
83.84	7.054336
83.8662	5.442889
83.8925	6.3001
83.9188	7.054336
83.9451	5.890329
83.9713	5.890329
83.9976	5.788836
84.0239	5.396329
84.0501	5.593225
84.0764	4.739329
84.1027	6.3001
84.129	5.0176
84.1552	5.992704
84.1815	6.145441
84.2078	5.349969
84.234	4.787344
84.2603	5.349969
84.2866	5.640625
84.3129	6.355441
84.3391	5.541316
84.3654	5.541316
84.3917	5.943844
84.418	6.728836
84.4442	4.968441
84.4705	5.253264
84.4968	6.568969
84.523	7.225344
84.5493	7.279204
84.5756	6.620329
84.6019	6.3001
84.6281	6.780816
84.6544	6.461764
84.6807	6.3001
84.7069	6.405961
84.7332	6.095961
84.7595	6.25
84.7858	5.593225
84.812	6.568969
84.8383	5.593225
84.8646	4.473225
84.8909	6.145441
84.9171	5.740816
84.9434	5.841889
84.9697	7.392961
84.9959	6.568969
85.0222	5.494336
85.0485	5.494336
85.0748	7.001316
85.101	5.943844
85.1273	5.992704
85.1536	5.992704
85.1799	5.349969
85.2061	4.787344
85.2324	5.688225
85.2587	5.0176
85.2849	5.349969
85.3112	5.349969
85.3375	5.943844
85.3638	7.392961
85.39	6.728836
85.4163	5.202961
85.4426	4.787344
85.4688	4.831204
85.4951	6.095961
85.5214	6.3001
85.5477	4.338889
85.5739	4.648336
85.6002	5.740816
85.6265	4.739329
85.6528	4.648336
85.679	5.841889
85.7053	6.355441
85.7316	4.648336
85.7578	6.041764
85.7841	5.442889
85.8104	6.041764
85.8367	6.2001
85.8629	5.541316
85.8892	5.0625
85.9155	4.558225
85.9417	4.695889
85.968	6.890625
85.9943	5.1076
86.0206	5.157441
86.0468	5.640625
86.0731	6.25
86.0994	6.512704
86.1257	5.688225
86.1519	5.688225
86.1782	6.461764
86.2045	5.157441
86.2307	6.3001
86.257	4.426816
86.2833	6.25
86.3096	4.831204
86.3358	6.145441
86.3621	4.787344
86.3884	5.0625
86.4146	5.890329
86.4409	5.253264
86.4672	5.593225
86.4935	5.253264
86.5197	4.875264
86.546	6.095961
86.5723	5.541316
86.5986	6.355441
86.6248	5.541316
86.6511	5.253264
86.6774	5.788836
86.7036	4.923961
86.7299	6.620329
86.7562	5.349969
86.7825	6.095961
86.8087	7.166329
86.835	6.25
86.8613	5.992704
86.8875	5.640625
86.9138	4.968441
86.9401	5.640625
86.9664	5.740816
86.9926	7.5625
87.0189	5.349969
87.0452	4.831204
87.0715	5.157441
87.0977	6.890625
87.124	5.349969
87.1503	5.688225
87.1765	5.202961
87.2028	6.943225
87.2291	7.166329
87.2554	6.145441
87.2816	5.688225
87.3079	5.841889
87.3342	5.593225
87.3604	5.688225
87.3867	5.494336
87.413	5.740816
87.4393	5.0625
87.4655	7.969329
87.4918	5.841889
87.5181	5.740816
87.5444	5.943844
87.5706	5.943844
87.5969	4.605316
87.6232	5.890329
87.6494	4.787344
87.6757	6.095961
87.702	5.890329
87.7283	5.349969
87.7545	5.299204
87.7808	5.890329
87.8071	6.512704
87.8333	6.041764
87.8596	6.25
87.8859	3.755844
87.9122	5.0176
87.9384	4.515625
87.9647	7.054336
87.991	5.157441
88.0173	5.992704
88.0435	5.0625
88.0698	5.640625
88.0961	5.253264
88.1223	5.992704
88.1486	6.568969
88.1749	6.838225
88.2012	5.349969
88.2274	5.943844
88.2537	5.688225
88.28	5.688225
88.3062	6.512704
88.3325	5.688225
88.3588	5.992704
88.3851	6.620329
88.4113	5.640625
88.4376	4.338889
88.4639	4.923961
88.4902	5.494336
88.5164	5.396329
88.5427	5.992704
88.569	5.1076
88.5952	4.831204
88.6215	6.461764
88.6478	4.426816
88.6741	3.9601
88.7003	6.355441
88.7266	5.442889
88.7529	7.166329
88.7791	5.943844
88.8054	4.875264
88.8317	6.512704
88.858	7.279204
88.8842	4.787344
88.9105	5.494336
88.9368	4.473225
88.9631	5.992704
88.9893	7.054336
89.0156	5.157441
89.0419	6.671889
89.0681	6.943225
89.0944	5.992704
89.1207	6.2001
89.147	6.838225
89.1732	6.095961
89.1995	6.671889
89.2258	6.095961
89.252	5.0176
89.2783	4.695889
89.3046	5.740816
89.3309	5.0176
89.3571	5.349969
89.3834	5.688225
89.4097	5.640625
89.436	5.396329
89.4622	5.253264
89.4885	5.943844
89.5148	5.299204
89.541	5.442889
89.5673	4.739329
89.5936	3.833764
89.6199	5.740816
89.6461	4.875264
89.6724	5.442889
89.6987	5.202961
89.7249	5.0176
89.7512	6.145441
89.7775	6.25
89.8038	6.512704
89.83	5.299204
89.8563	5.841889
89.8826	6.728836
89.9089	6.512704
89.9351	6.25
89.9614	6.512704
89.9877	6.25
